AF3,F7,F3,FC5,T7,P7,O1,O2,P8,T8,FC6,F4,F8,AF4,eyeDetection
6.9177046838501575,-0.22990580778672248,-4.976020320073257,-2.270733692942434,-3.22322116484629,-3.4095207397064553,-2.76115619229209,-0.8288108454152754,-3.757031223905274,-1.8495803387955663,-0.7745672309107363,-2.105902419352729,4.807120136822483,5.433249385461936,0
2.8005321337635376,-4.830275959427725,0.13864364489682846,-1.38771337458222,-11.47288258991883,-2.896338271873856,-2.209631184247386,-2.701168771390627,-14.971475306913476,-13.412221926873725,-4.205278371337489,-2.9768737513820547,2.028241149521743,-3.5819758223004916,0
5.7355377614277385,-2.885185048535578,2.270706778422611,6.438013597703316,-15.653069236707072,-6.321268979889877,-2.2780405783131026,-10.571595069144712,-16.73251865025092,-17.65378109139102,-4.5730567877668715,0.16447642765854886,-1.1136548846402086,1.3658499382226053,0
7.511012594886816,2.2851760297060872,3.7948838790798156,6.403338817307084,-9.641175671265072,-7.062273513578651,-1.9478839325257236,-10.119010817764288,-7.525395076660603,-4.078350980044028,-0.6852969327191021,5.630682450657613,2.4339990474731943,9.76017096773319,0
5.062167597709798,2.2160275986883935,0.15522295801874697,1.958102206840893,-4.539676575707659,-3.500108289614733,-3.1072970087207374,-12.655473589361172,-13.18033244356086,4.800849337593584,2.165314545300774,6.8339716421024725,3.7620510442002946,11.76158087510569,0
-0.007273842809559117,-5.02259159500488,-7.374035289302095,4.388701845050921,-6.797385970346692,-2.650987523036766,-5.534169995274725,-22.850955827462965,-20.98450796977673,-5.959180303103528,-1.0764711485881282,-0.403966824093128,-0.4229604184342546,3.562067552275475,0
-0.660732405088063,-8.572405261138385,-10.62213526253182,3.0557899144601692,-8.551806841352906,-5.635581862562598,-9.16797169552784,-23.91771070353289,-11.22976536979116,-12.123213658341186,-9.200433614373885,-11.328130057108444,-3.2468768313937177,-6.881901290419558,0
5.0341076777155855,-3.0650190228564695,-12.041206124274408,-5.23544874982241,-7.592861689537801,-7.105732230718351,-11.261943179871146,-24.109487263072133,-16.945237336310235,-8.013689458968699,-14.237834281362703,-14.075955552697632,-5.539205547009219,-5.035986746298344,0
6.409459906133473,1.0488721225079565,-13.561179805644525,-8.672411738808341,-6.65827201914953,-6.179049855378715,-7.279535735301341,-30.701572181428336,-34.83374958204706,-8.437778012453437,-7.73975523878159,-6.870038157136177,-0.2638680662758288,5.278124089817863,0
6.417410636694122,1.4583138473034865,-12.678863737892922,-5.717928189721832,-7.199027860154696,-7.93531526703282,-5.445457198743593,-29.704190525363448,-27.683017322438943,-9.10208438674987,3.2563973691452874,-2.2878273037361834,10.654218752518322,8.888367633623407,0
6.596103314608303,0.9763954484060294,-16.039847448862385,-4.418647501442347,-8.589349173020535,-10.962620527223532,-10.385791950544363,-22.07257585790446,-15.258397971496397,-8.805944854303014,1.518532497467258,-7.370700567171609,5.357829421109665,-1.3548618222065163,0
-2.0847332848104454,-7.452739201593255,-29.11083128897119,-11.386689586503866,-11.555116672134005,-9.066056337434066,-11.90359770535525,-22.367993381974117,-25.485914149576654,-13.860285762373621,-11.68431735259935,-17.853269650532894,-12.709638194740393,-12.596816629508513,0
-10.868388979294458,-16.525345315911043,-40.19614085788001,-22.234512912559126,-14.646925024300803,-6.17225609338308,-7.990854868066059,-26.968431370140678,-31.809764188763598,-15.292624928890515,-18.380619854367513,-23.706437382660557,-19.28929735089197,-13.369716690268042,0
-10.391115670489489,-11.675415851170866,-35.71996270836346,-24.186506528640034,-12.184035823512346,-6.04059513781378,-6.395880946062086,-19.97635208749072,-14.821526202232114,-11.377091151464803,-14.363372380893974,-15.990897468305743,-15.034116087940278,-11.411344299320291,0
-5.668878081026776,-3.9271929375187953,-26.467616136151996,-18.603775411439074,-9.09819025508873,-4.914906998997468,-7.746515918388578,-7.856937684724297,-4.008006388629006,-11.234684494034582,-9.1548385866955,-4.740754389128129,-12.787379330209484,-6.221452537236865,0
-4.350712302044613,-6.56691440356877,-30.528821511053245,-18.47154128837196,-12.151766506244186,-4.707713966946548,-5.99914383681968,-8.37354646129322,-13.240439022292865,-11.688505208797162,-8.704497915127414,-9.94751785029251,-14.14302922654667,-2.9728433382830284,0
-11.336020777463853,-12.398222142805027,-38.891527128423235,-23.213330134980126,-12.892813898384738,-7.093015889707343,-2.81506471772694,-15.342323498667344,-16.76352918644367,-9.957908647614817,-13.927428511111176,-24.395294601868407,-17.77275143657603,-11.760219114521302,0
-14.227991753569562,-13.811107558947027,-36.119691995024105,-23.50373916934607,-8.45819438392258,-7.056040879572416,-6.203032416507012,-18.89199520354057,-14.795660470580065,-9.449173779422527,-18.377702377901965,-24.784309333820698,-17.30250155791212,-10.658787338164384,0
-5.142752911598722,-10.593019188732667,-29.301104115372862,-21.198897003904214,-7.500665208186748,-4.597946435619592,-11.1549057669496,-24.321484147001655,-26.31000582175274,-12.592304357658875,-15.122803642994525,-13.926914730750465,-8.397183758487543,1.1343732946765686,0
-1.6873959427053293,-6.740991417751351,-26.865185572743542,-22.358986135455954,-7.35741208478602,-3.2603952379545973,-8.455646274700952,-27.41338597052477,-29.417622353495016,-18.26369473746287,-7.125549667114304,-7.843260569364343,-1.1145139990608648,-1.2919840461582495,0
-2.5616483440037214,-5.165551912470513,-24.756781993825037,-21.26476014716729,-4.037660923633758,-3.1529350872894075,-4.140619698178892,-21.424640245534444,-10.879540008480497,-12.448345403175928,2.7159416351609864,-5.9396676635892565,2.106440051619639,1.6252791714402495,0
7.401645724456648,2.2577965748218003,-20.354103784671274,-11.990995268943003,-5.444927071458777,-4.531911470713739,-4.536813900602138,-16.040976797670652,-3.9578954132380684,5.630353717272889,11.238170810065421,-3.4124920980957842,10.320409378330435,20.62248819499991,0
14.604256223055163,13.241942925680952,-17.00313698208494,-4.360497523825277,-12.153807919421833,-5.946383579778676,-6.344817059379159,-15.416967945100538,-11.637628045157506,10.754123972204214,9.78069282655144,-3.4351398621029405,17.24331046688326,22.50056763993567,0
9.96116511385514,9.018419149787665,-18.564036428943524,-6.372796299040421,-13.946048975964796,-5.643042062271279,-7.827337736251861,-11.770825174330989,-3.5285124586109227,3.933776107684059,2.3944571239996844,-6.312868281913406,12.939215368494125,5.907568633599487,0
5.091631271862471,-3.1678119594217584,-22.09659477018837,-11.414812667498008,-7.94312319659742,-6.298079572148991,-8.48834610091362,-2.4156350286861916,14.886226121274849,8.75494557934502,2.4776469460336594,-7.054862926816055,6.754290379307793,0.43690574734897214,0
1.0499233867307067,-3.6325218712954594,-24.359923172556844,-14.724652968114338,-4.396870886648047,-6.7060913675185025,-7.545257383056124,6.526326282780723,15.866099932070828,13.581682155304907,3.248769421531465,-7.651914905117165,4.243039970718145,7.733892043607719,0
-4.289839326464931,-3.8833259306716927,-30.42789143582263,-17.964828908327334,-11.106052027768303,-5.028747521962896,-7.589981291061902,2.257199807449151,-5.712471241333459,-1.092617078036663,-8.431010792594023,-14.933678917324265,-4.856755099208037,2.981729592284882,0
-7.462761637587885,-11.49972439020512,-35.7195810962995,-21.427131213756535,-18.238877469675128,-6.396860573988754,-8.741710522688265,-14.154119393969491,-25.515131651154828,-17.073324647243986,-19.5325412221648,-23.193353114147307,-16.21790182068028,-15.731908912805787,0
-7.576792620995223,-9.33455172039136,-27.54097616695636,-20.10544798769118,-14.4288953148734,-9.751984631300498,-7.268387097600119,-20.66679817861705,-21.760332669394746,-16.79308020892087,-15.733304024717496,-19.929771641744097,-14.527341411408468,-17.480888734997492,0
-4.623071117704726,-0.35394148073803877,-14.77419205513225,-12.07771288452733,-7.394772802259995,-8.754031893609817,-5.257765667075612,-14.45669471534959,-13.671846287737159,-12.28186536060505,-9.57554781364388,-10.944021342002303,-8.418531874789451,-2.8176843480081426,0
-4.341140817627006,-3.0582378945632596,-14.433464570448537,-11.505989777806374,-9.532089132915427,-6.743883912410025,-6.989874528410919,-15.826061719414202,-23.768845404708873,-14.505390888217438,-9.695682796364233,-11.15480719558108,-10.509888790008995,-2.7295420426179193,0
-9.472946969067914,-11.211750699147034,-19.458388859235612,-20.824552565203664,-16.13503276133549,-8.508141898284968,-8.947208245563088,-23.02674370644356,-27.791793002187987,-15.34504470964266,-5.25502649002539,-13.138383592500373,-7.759510885356952,-7.253944018124258,0
-8.30067387556165,-9.114131358220245,-15.715049589609105,-20.13317231869645,-15.791989445956634,-9.988150308482737,-7.652098475924996,-18.114631083610554,-11.03691006347109,-7.917185346480213,3.924650435362106,-5.290366120683625,3.7203223406690715,2.7756944685535547,0
-0.5320514919018484,-3.693307637802409,-9.832168751263433,-13.330000236682785,-10.67881909360123,-8.636782858016415,-1.9878530001189376,-3.9588355580659127,0.25541086614538155,-0.6755243437496228,5.81034612108362,-0.23146826540412224,6.087769955567179,6.530337883269475,0
-1.4913841443080829,-9.365618565563969,-14.387944826980855,-16.99354813969495,-9.636427771444716,-6.175750573052645,6.642942960832505,4.194500989901546,3.377953526579173,0.8516447725834508,2.5360813764199577,-5.397085899308797,0.6136234966153484,-3.8098273101336995,0
-7.089724303812099,-14.893671031254536,-22.892384817129102,-21.58757234742644,-12.954535863456744,-4.062607298353984,3.9647263718031143,-0.7061332030573642,5.399262353357841,3.6369936037468698,3.6084213670983942,-7.434463198067469,3.3832165485783605,-7.6145346690582025,0
-6.376171408873754,-6.342351593988248,-23.747355844848787,-19.669787459157927,-15.296421633410551,-7.4635846777422445,-11.523813440820529,-13.619511942271345,-8.786010844768624,5.006839199504614,4.134982312998733,-4.55134935488612,10.288183289672837,-5.193803177099085,0
-9.231349604698853,-5.1682790907960685,-23.231006504107583,-19.51537805861745,-15.16801845741808,-13.49899429751181,-16.003137364905037,-20.48270546921583,-24.486265411394072,-6.865255414778547,-5.300867495245984,-8.891848604553957,4.7923777399492735,-8.517899236542611,0
-17.397198686032286,-19.8482316977252,-26.433698781233307,-21.821265631792816,-14.390301884443357,-12.105341468882758,-7.7869306413608355,-18.600701696130916,-21.589671475151793,-22.270323731332706,-17.297167858568592,-16.73910399328163,-11.456753254811881,-11.296036790950609,0
-14.369216347469719,-18.776235105375335,-23.051551679412658,-20.619163508078493,-12.193393788761968,-10.27131070247693,-5.237117308934064,-15.749249021710355,-14.527161285915408,-20.788343872725143,-15.92003029519965,-15.310890997757728,-16.362189068564025,-8.772350579190688,0
-0.9931402709662802,-2.319846686021196,-15.3166069225243,-15.201775332379386,-7.359754347146139,-12.645194034728947,-4.376148614819096,-8.627222712413879,-6.536930537676016,-7.188789690566526,-5.219788500887069,-8.060240556327331,-3.9952581344323472,-3.876255514188016,0
2.250416684187323,-2.5621747966431174,-16.726015441816195,-13.498326871263508,-5.145492587465001,-9.485324521120411,1.7170608736366049,-1.2891984418201128,-1.517645140474233,-0.790568739661305,-2.6770153440718083,-4.3046460133640805,2.378441101998644,1.4763936260187869,0
-9.457987002069565,-15.027667996023961,-22.739371978775704,-17.940568810371012,-12.57033843862656,-8.69446727724394,2.2985019016713606,-6.427449036214844,-9.620180638854702,-8.509454885300293,-6.9243995072424855,-6.980887646792698,-6.299078259929184,-4.376090092711159,0
-18.02488651192076,-18.21442310864693,-25.168793790221475,-18.58135374312651,-19.74620010618812,-15.802292914464513,-4.2617728057226305,-10.3505548880144,-5.807302417376005,-16.800315835605588,-6.3010013460350605,-12.99631507599354,-10.72526771243613,-17.034565745241906,0
-16.316382162464272,-12.849506397127739,-26.26061021349073,-16.078839587293626,-11.057585321001456,-13.45849534244299,-4.836799008952973,-1.1779604474752912,11.446697417843168,-6.171383247246872,1.863953655233197,-10.416177748299162,-1.491318508403412,-11.464654091755847,0
-12.43472991909381,-7.19105669835061,-23.73134291353375,-18.165607541892975,-1.9757422099158868,-4.67057200317872,2.6346478632635644,2.084420995702164,8.044033304040344,11.798053726731437,13.93138601211306,-0.7005984695645795,10.955780343654473,1.7299000793412382,0
-6.502989004873511,-8.09712711064265,-17.02383119388206,-20.164612030349552,-9.758953329910398,-6.019561133629258,6.332124725459309,-3.6684377762727625,-1.5428466146160993,13.509676585139832,19.12292449667477,0.9069644927789282,16.69661921562752,2.415681252005669,0
0.10748374712967479,-13.711279158373626,-10.126737815414169,-17.95824788857539,-14.231218722071045,-10.283997361217457,1.042799020453045,-3.3118907416209753,2.329711995295221,10.669257162099623,15.19519044440634,1.9080439192858787,17.10518042592664,7.155921700075456,0
2.7604009652195796,-9.911858004698784,-3.999705108640798,-14.4408392590667,-5.492855094769185,-8.931218140815803,-4.266948875630219,-2.725253336808338,-0.4140867937023902,12.26003593487849,13.386417124199797,10.156800221644453,18.448718832830984,13.788734059878792,0
0.9508078115005478,-0.7658376237091891,-4.4367445886983585,-13.556463188541793,-0.451295009855067,-4.15316389467971,-1.9211955270078709,-7.668407754691441,-6.718321678683202,3.6173963837702043,9.570152319513483,5.425577664349021,13.537316464984354,1.9724094422601866,0
-10.221227866957914,-6.160671877949121,-12.458516976466116,-17.65560768677716,-2.018329407078637,1.6840285116862632,1.503089666055454,-11.896617834411249,-7.603277638053524,-9.768867666283187,-5.542705544900013,-14.387016992191471,-4.662959513958845,-16.053497610127398,0
-22.281042246524287,-20.052808157554516,-17.16384511572751,-21.258350401112434,-5.330884387026319,2.282704758560986,1.6681717698717087,-13.850586798347003,-13.375020049767594,-17.377001608295217,-17.240758717309504,-22.892394425421966,-18.60968854921542,-26.56379860914786,0
-18.10107850103948,-20.94058570421022,-12.89474645843715,-18.46727300375516,-5.672416593433606,0.1231539715000709,5.9835645071293335,-9.042241463858959,-13.018128299882784,-19.161902354030683,-11.592428958625492,-14.918402416537615,-14.590520236590974,-22.968664497102893,0
-7.602729442933079,-8.040755824315902,-2.587244194735657,-10.998301083138807,2.130523031492725,1.0331070770389643,11.610289250630355,-0.6569804073669463,-1.2072341734647254,-7.3497779701214005,1.0038575256659854,-3.999721365318903,-2.137504760350442,0.6170741964505324,0
0.04790782022399842,5.315136802203314,7.0977290021792605,-2.7756103411420607,3.9541393506304026,-3.0586874963930826,5.620446429250339,-2.6866032602126566,2.9947730348976807,6.642905294300053,8.41917943505335,4.975135501193382,8.894451192154808,17.841460005016195,0
13.32624483578075,10.619797755576876,10.906776970296516,4.245059910130783,-5.319334990258998,-8.85691335614049,-4.770343395502612,-9.35293252059964,-2.134557567752166,5.209022256977496,9.097701300524164,5.746595399200674,14.127182964228146,13.12270006285,0
19.605571635248726,8.490533672509791,10.749950771610164,7.386603518467566,-5.318841483193761,-3.1447981907727565,-0.8966684548987944,-5.753033750935294,-3.3189280344127,4.862353503926805,7.689113629894877,-0.9430572345245132,14.471678051679241,11.423900345085759,0
8.497383469670428,3.0967028441707525,6.82910839476861,-0.5862534930706378,-0.47103134499988375,5.831968156966943,9.313274924861172,4.117135274672852,6.2312183618951,13.554693457308796,12.169545936122843,1.2080373675910572,15.918869816403264,14.685911107325946,0
-1.6554355033310166,-5.177444308378711,-0.9180018235745475,-13.758550688908798,-7.028139416682722,7.526104431722377,11.164389008366857,10.565286040514113,17.633248279522057,14.818893095342865,16.67992738743938,7.476301591103626,13.37105081239948,6.605869774432708,0
-3.828102188655688,-10.730892844443783,-2.992970959803131,-11.544196027058497,-8.251402513332973,6.287487931686199,11.007090044148095,10.974889941939194,13.861981362919037,11.756989502675188,11.998570421900693,2.648727704834341,4.7972718265432945,0.7467095409318194,0
-4.366936045515797,-7.398650701069899,1.311990607731195,-1.5376214405677207,2.8765590508289702,5.748645511067273,10.128199613086178,7.866102976449925,4.88984731368849,12.334453645162931,8.859049294711586,0.17093370660525142,4.484464776671223,5.374053206694361,0
-4.310640126253206,-6.6801585591447505,-0.04012459068350083,-6.21936705928278,3.519636736069395,7.330711295567241,7.055721185221045,9.037658806809937,10.151065129891247,8.421299332287695,10.166186992722675,5.984978554982166,6.585805335877621,1.5500919092259684,0
-8.868262547992764,-13.29727699769129,-3.7271574484805416,-13.852855260306512,-7.1865587215884945,6.084801279102037,5.788087331437717,10.91745885221517,11.538407311362874,0.6379887091464926,3.5406317013759425,2.570849544338147,-4.717561076243649,-11.712711227286393,0
-17.957243311373848,-14.737659772558649,-2.578556498871084,-12.642962347948178,-8.361587792971783,-2.528813282871768,-0.3815876267120384,-0.7523419053728491,-10.41133642006464,-6.748700158884461,-6.975444780117917,-7.564748914373726,-15.051650087680729,-16.21921639544648,0
-21.210903227986783,-13.26154776917195,-4.4118478005055515,-13.025680426809004,1.2326043449117154,-4.1949340695735335,-6.458682362639042,-14.134833954027524,-26.516763390185034,-16.712516957551923,-10.612911132426941,-9.413814408408701,-16.061073800266037,-14.479849807124937,0
-14.232711970029197,-13.967805020633357,-6.514885076558112,-9.138427431484965,6.369429389734233,3.944131859043144,-0.7185356650811601,-7.010331221249402,-10.465526434200026,-18.917432455865768,-6.752485307299223,-2.2746902375887386,-16.946497481140973,-16.618912526297223,0
-4.78167746255473,-9.57797002911378,1.0529855351010875,2.0574679625735603,2.0502549763455598,0.3887463226257597,3.225970719366569,3.348186567804185,4.7219019123030295,-5.772814539951556,0.9310784155187783,6.4146338594918175,-10.741218783659745,-12.661179662195734,0
-1.907692697926663,-3.5642689098645053,11.904206722249457,4.595877920962735,-2.125072812575434,-11.58192147503121,-2.4203513206910996,-4.543874422000758,-4.565667815327288,7.253978880863144,6.702566035865993,8.533519133598045,1.3823358752874824,2.937111794458045,0
1.3701551767621085,-0.7092597904347961,16.97497722566439,3.3593709876651463,-2.612641764331324,-8.857237878594546,-1.0403650556522113,-6.91157592331767,-3.3962005007833316,14.89638510386306,12.41745419422054,7.801732330364452,7.853253575508834,14.198383085270473,0
9.412724679397657,2.762701481401457,16.29524219847272,6.534467426420044,-7.143432041968408,4.162703726604259,12.31405699673492,11.304474688498154,15.183275330738418,20.70269443428903,20.769620020105073,14.384614614301789,13.675252999039616,12.746860148017252,0
5.908663934700698,0.9273025812868934,14.986446649852953,1.9972929605534206,-11.91721481443621,11.098211544810045,22.387542573182415,19.658352326309796,16.93672423839325,14.89385873385342,22.156523612248527,22.731932890607226,16.95954187779821,7.641784376769548,0
-6.5685654951537,-8.329733965425092,15.589455574313533,-4.295117862986713,-8.435447908052268,11.311585398120776,21.3868722607427,10.231024186281003,10.118502457732836,6.473225578090295,15.401741565804686,22.48528441623983,10.07370999979562,3.565548350409145,0
-9.9249889580514,-13.282571487036364,12.326954545907064,-0.8724187856950048,-4.006358074989258,10.913604224316156,18.125080039018396,9.848511718708117,14.967563841095712,9.856706652065906,8.304901802816559,13.447430578974984,0.4299141230681913,-3.6588552998408606,0
-13.005519627829743,-13.856853875586403,3.190298715462542,-3.4458536106855115,-4.924838825057371,11.887688289405993,16.139705617621484,11.158464060654339,9.663851854688307,6.422125278429552,-0.9253992836146394,0.7507453255749175,-8.045553962241726,-16.836697060650955,0
-20.1452299749862,-18.704045485312296,-5.803855384972297,-12.328183746739871,-5.387871600716231,6.670550812772788,8.665350163678607,-5.158651374965554,-12.515004211170398,-5.405730623934746,-10.026873564102658,-8.529595333123785,-14.570149320059917,-27.423354337829227,0
-21.321151719248896,-22.484656522626647,-11.76944150854737,-7.829136409411304,-0.9838262207342843,-5.104516199158435,-0.3837679399521189,-19.137080728312647,-21.82123897507565,-1.7754781891837905,-11.754807343497088,-11.969857824318598,-13.896074501589034,-24.447958762643026,0
-28.127275407156628,-19.500609881229355,-15.76370328334153,-3.192406832178069,1.5790359981341937,-7.139567783961869,-3.8158862519474877,-20.701320738813124,-18.187611331685975,2.7696084365232476,-11.436137347805438,-15.492090852403546,-12.249051109537133,-21.363940861160454,0
-39.74735977634086,-18.24355017999689,-19.56477458950995,-13.362751950057877,-3.8717244336860053,0.40676874406229224,-5.71869744614024,-24.418197219014473,-22.82795700975258,-12.486429344224423,-15.934995825283945,-20.70174329235941,-16.195406660463384,-30.305863917679318,0
-33.571813469412135,-19.844471109943758,-20.62553626012583,-13.952347194907304,-4.222677715075836,5.111486395487658,-4.92821035365697,-19.210291446016885,-17.63798538973169,-22.884759793809952,-19.579394278600894,-18.389948021888923,-19.188670507369828,-32.555734785348,0
-20.38126281393856,-14.432094000096676,-13.545980762057717,1.6108011071214916,6.66846293551052,10.70510106596754,2.2586638767470015,1.014110093360078,6.047956746383081,-10.47965306914804,-16.016464524924128,-9.388727797787995,-19.106877790134256,-24.983847506393584,0
-23.029379102131557,-6.376939389941505,-4.921027298749566,7.944684365163419,11.343402733035592,17.26525485319332,6.219758600559318,8.868325047636617,14.350361360376006,4.302746018236591,-11.385792621321503,-8.085726471610716,-19.52067528980142,-22.941807596278114,0
-27.286673774641535,-4.99333549586038,-2.06709785981379,4.544565553297318,9.077128868460692,19.45297630628305,4.6198551785912265,3.4045477308519017,10.05786486528585,6.364531161012319,-11.999220972905388,-11.362000673968755,-17.942496644820366,-20.45268526609929,0
-16.067389304509383,-4.109655163431242,3.233989417552598,6.022737672430537,10.581969944873844,20.338921825344997,8.625329061131268,8.741299265730184,19.576001196713634,6.387036373560095,-8.433789257278885,-4.4406748447025715,-9.69842064403368,-14.61440261247299,0
-4.498670387853433,0.8009634074759289,12.92138627324665,9.122359625024771,10.783806852610638,16.79440191713511,14.218389722593392,16.497319805196486,23.6820466840431,16.455252534056633,4.943770841741429,8.573747162592886,5.228168660076835,-8.792424407322901,0
-6.557343761944461,0.7601825091209546,17.454163375436394,8.174534927977618,9.952342627205988,11.128634504243813,10.393538540217158,9.10248892153971,6.444504550684794,25.41781144434693,12.800467953543688,14.149856530907282,14.965712729435426,0.5296749314364,0
-10.966289844065505,-9.765749248824376,14.211557394114537,4.452953557760987,7.374325897754314,13.216575500896816,5.4640339154426405,-4.187209709897168,-9.91738789873192,13.706071126291643,5.010944493157434,8.987976934097372,7.27357346800738,-0.9655429347496298,0
-9.905520752286975,-18.54693179279455,7.862700207354649,2.154252681287671,-2.1323634261855133,14.103521707953082,9.036797399701433,-8.627018897859285,-10.357855020011701,-5.4032365988092295,-5.4706111241502065,1.8396077919041578,-4.009127554914763,-14.070790919632463,0
-10.805285715136993,-12.053343145298138,7.3861251231191405,5.880054461929619,-2.5265957113459967,9.164101996959355,13.59140866150717,-1.743597326987253,1.6099481901816692,-3.231853363509417,-3.7807756431534845,2.363745703283966,0.08798595849843327,-11.552662081769023,0
-13.26775909978845,-2.930231568270679,13.666247548958609,10.10135869575467,8.809637207476685,10.518374302815886,12.39573921879183,6.510688860760447,13.909802752912999,12.257134309138726,6.151078359442207,7.3213498485779445,9.181973956810861,-2.1391248456912315,0
-14.252419424840223,-8.299172265470563,15.849306614745798,7.608417925481508,9.002425972544406,12.67944237753334,10.767413957560228,8.193727754556058,14.029336320630483,15.845069118954058,10.252911018020786,9.11167528962825,7.756307674558087,-9.395555287171327,0
-20.272617818663484,-18.946627085682845,13.851629959827712,3.9072301141121866,2.461866078423473,6.493831874778507,10.303398376563688,10.01691927615451,9.012001800507297,9.365065684546854,4.569997836810324,6.649271057777441,-0.22291764698496408,-16.813309750598336,0
-25.437339215585588,-20.995974101871017,10.996554358795763,4.055416824290583,4.078557415801727,4.440768317654065,4.729472314843716,13.423285441978386,11.022107996091966,8.66495832896533,-2.494767072299523,1.893383631882862,-5.70290836138625,-14.504189219819473,0
-18.487733336305546,-11.94911524856889,5.195654247545054,5.966306305814353,6.801734790105846,12.643536753683724,-0.4766626856562537,10.858925331705949,13.75903067512402,13.265268379280583,-2.206342553320492,-0.61793446541369,-5.024081160944004,-17.253565419813565,0
-12.631443180546569,-0.6642819558357469,4.121785532688121,9.30936415928744,10.510645864089327,17.829797268325404,5.422515709853899,6.0137288965423785,10.147236233034402,10.52030956789946,0.7767629330675762,-0.7887453856401185,-4.871705305257494,-25.09753239167727,0
-21.360125302498023,-5.130939130459514,5.352762605590354,11.431924075644913,14.2086499683501,13.632580219471679,14.220350011004907,5.805074468471208,4.05087711399667,-1.6646808306241705,-7.160543755365261,-5.826276714767623,-14.513177954269889,-33.30119501553118,0
-32.53321004978388,-18.697277904191704,-0.4643621950679083,6.0750855747000365,4.043525832150474,9.664700162311368,12.951727748317923,4.916120181176643,-1.986044018693014,-13.920085070532515,-20.456015594507047,-12.728827988115835,-24.1164470372595,-38.25601937553502,0
-30.083460943342846,-16.169790296396776,2.665042020060921,1.2964929005605703,-7.031578833013427,9.073390395280102,5.684508189752235,-1.884165932594402,-4.642214413551059,-16.525161394941776,-17.357259389190695,-7.462408515891289,-18.305165775762084,-27.2603991565308,0
-14.880572794473379,-3.515885719026036,19.98703726170826,11.677178619941484,1.6745367510696045,4.499493379470719,1.0880524513570893,-5.532298568778628,2.182372010114624,-2.0577130366208634,0.8740979187359559,9.124954127674059,-3.056263799891788,-8.475976249676908,0
-7.067676641292429,-2.999116560119963,27.00166714847118,21.473158900390015,9.120451507699228,1.4596739460462782,0.16585469380725515,-0.6311128023816106,11.90744822938664,16.36209974403916,8.847118560190074,16.038887403939377,2.593825099083758,-8.349254479968996,0
-20.878269341718752,-14.416966823316903,18.12387614610633,10.926838278900718,-1.6872102492482068,6.557926623444494,2.0410752193928245,4.728360845375066,13.345398315410426,12.903376482016775,-1.9863882355885618,4.7921244734228745,-8.730030395853028,-23.943084254443338,0
-34.76743122805991,-22.234754000665827,12.104029556082601,1.8969051380195707,-3.998806278390965,7.655666816665667,3.93920188459155,7.980519333311884,10.087780310556731,0.26628703161005185,-12.067753172614225,-5.109557651121908,-20.276030499573437,-31.931792130772973,0
-25.938545081029652,-19.579486168431668,16.33950355550854,10.03093896039844,10.382004980353384,4.53209707366087,3.8891907404515136,9.32444888896367,7.586387729279716,2.0962674275652016,-9.087735843641655,-1.5338410137793232,-17.787135347093034,-30.331068109971756,0
-13.698085249308289,-17.82035532215558,18.80260796332821,13.587784643458638,12.55438469368049,10.309279391008861,6.768769046352571,10.242337142295394,8.068461448558494,2.2146456947791835,-5.20229982466894,2.8374398522926434,-13.208205302968436,-27.250797826363907,0
-19.296571906440487,-21.289333294412977,15.385828866798294,7.220233768799561,3.0189710033570227,14.25586100726188,9.793102494944314,17.235557868599276,14.890716458560773,-1.8869270811441379,-5.573544418871323,2.483261906986169,-12.36189035648655,-19.37112124283102,0
-27.962804230171685,-18.806226325750508,16.439027790029453,8.208529737005787,4.511413760357717,7.298844042423521,5.5066062080052,22.052771292858857,20.6713688517615,5.819579410786914,0.6875752867579394,5.0744673192608625,-7.218815965818972,-12.322040448871865,0
-27.01035618002384,-14.915943775790943,14.350739578415887,12.732528962443403,7.8671112571159405,6.65577321379706,2.3007897482599104,17.94518124631983,19.684578997725083,8.167176257791096,6.666479683990428,6.453317648589062,-6.60402196642185,-19.693062092939858,0
-24.9083594721054,-18.240179203651063,2.1533125694614412,7.886853580579429,3.726304567354265,13.443632942874974,3.369710341657402,15.529663088124465,16.409516207287364,0.4238966372634071,-0.7646104427320766,-0.8372018226504542,-17.009752219229796,-30.381429274783603,0
-26.397758552566618,-21.15710710003626,-2.3711650782272935,1.341871925222379,10.102417708058837,12.410746006099787,0.22300067947731295,12.318701104478794,8.92860839381286,1.7359794302794684,-8.640309437968309,-9.157179800637646,-22.563530297019554,-30.050864504131447,0
-30.660459599038756,-21.479490560431024,-2.5471844241094592,-1.0854379757515646,21.952743610728252,9.36245292897716,-0.6854592752555222,3.3935419190883227,-0.5642935809950846,2.1214658734924186,-8.019408979455589,-12.82861301852897,-18.996960584596838,-30.799077307074445,0
-34.53560776936137,-21.072693924164934,-11.984518251407561,-5.526563439013843,15.878447110326832,11.502966526960874,3.3130472054754923,1.1348704623927932,-2.96502185826099,-6.259654888012038,-10.097765526077719,-16.689607418497843,-20.246578784116632,-36.15248722124025,0
-32.72918052013727,-17.490126458005662,-12.192576895046829,-3.8311642191237034,8.401179907415637,11.907078154185527,1.6462317794358758,6.9740334305151706,-1.6051105337303442,-6.774766813070501,-12.677822714770663,-16.03968831052628,-26.07277441383579,-34.82745588153827,0
-31.022279547733095,-15.460145493214172,-0.7531829531285625,6.084080902534302,18.117004003058803,11.136237850652014,-2.9628243280113744,10.563432831094582,0.9552389034507969,1.313100905477246,-8.560639380151423,-6.797901504681209,-27.69179706458453,-34.215256579710534,0
-36.77076537433723,-19.965536847813436,-3.8693684366149625,3.1151882374815587,17.841720636392726,10.906242231047813,-4.577414262501561,10.510446930433062,6.643163054596819,3.022783750827006,-9.637431617133288,-5.974710873172844,-29.714022128887343,-43.34182838987275,0
-42.39451907136363,-25.808466808892437,-17.175184618647187,-8.991546532255402,0.8596194342724232,7.567064163789687,-5.487566159850923,6.587143390567794,4.2901708027356875,-5.528519913359856,-18.888553000466402,-19.434455191599433,-36.02215585324351,-50.355025983187225,0
-39.83070367578951,-24.479160360067066,-18.165647219535,-7.744438046270335,-0.3083493951486762,4.966259041950691,-4.630454891965312,-1.250203494678693,-6.192100892212424,-10.470548207352856,-20.414278509100924,-25.2042652493962,-38.204390470295834,-44.63932513969518,0
-34.199367881069506,-19.110302335875048,-8.988672943325753,-2.665954953973956,11.202188634042823,6.4471754008190265,0.00931471851109622,-2.652582791315555,-7.645080081207784,-7.3935043780745975,-14.896268504842988,-17.63939417936261,-35.506251966982944,-35.777043558829725,0
-33.73854968870806,-20.892451953830903,-1.7099324344926012,-6.751311341022689,9.714308109305577,8.780099076926202,4.261164238310108,5.007094954734867,-4.310509580074351,-11.54239560557563,-14.332872089405454,-11.766007382997557,-36.02893424108795,-37.71378098323625,0
-38.25781781501084,-24.070369489460656,0.2725137619981819,-8.554076556725272,3.236698871884586,8.500712285479452,1.6948255813639035,6.010288671341914,-4.675817189415385,-12.667203046571878,-13.405076371625912,-7.523387173425656,-33.55294622038908,-42.83328584696228,0
-40.507315114304866,-17.802860320433933,-0.24518722489930234,-4.4080649565770536,7.2532728736015315,4.758127299303378,-2.106782274319122,0.9238815189178196,2.154203320989663,3.8213296676086723,-6.795732769807379,-2.9777887482985506,-24.426231184679875,-37.369990325172054,0
-36.15872436296232,-13.13201139341806,1.4486406596279755,-2.436376518809219,15.356788096076276,4.528238078531642,4.319142202184313,6.588131166805304,9.620728051798588,11.110377409927292,-2.6952037291299367,-3.66798192610709,-22.155244894195967,-30.99650291582527,0
-29.258573493968072,-17.72808130721941,6.268720586105445,-3.1847323831455325,16.084661973814416,11.971341638668509,13.116580574081066,15.681218689229508,7.956804904752319,4.408633668192666,-2.811849021115107,-2.2515473642178345,-23.946388197466394,-31.93283279989235,0
-26.503991230636224,-19.59767342361417,10.267149266772305,-3.4842816003375967,11.4745992095137,16.940765891813815,12.490163312166143,16.367416391554265,13.767799542026106,9.794394629275258,-1.8250053683438492,2.6412036699821275,-19.53330587121186,-29.332681301660735,0
-32.72176365512307,-17.60835661735521,6.7784643226678485,-4.990446779238127,11.19769313606747,12.552989311288485,8.896481900093715,15.162968428799008,20.439246256484445,12.559674174736653,-3.4049146206263226,-2.041699297661632,-20.542486461816544,-26.606826716925696,0
-43.117205663420854,-20.441635591809064,-1.166741358268224,-8.171003418422814,12.164126598142834,6.282184633255377,6.85750112711831,11.14907513700129,8.926997138480438,-0.7648152210977317,-12.288459812935685,-11.026922230770895,-31.112553393320702,-35.34646992049969,0
-43.32819939073296,-20.980998458032964,-0.18699354768049226,-5.212677447568458,9.295552120339671,5.932981080189006,5.501083109959122,5.393406080259392,-0.1345146656718188,-4.28302814899577,-19.386130262202634,-10.562298494687694,-37.80197782912007,-45.38158529462338,0
-38.5573220571668,-15.1406624585817,3.1870106635544984,0.46549419332351416,8.374422041408243,8.480611727845364,8.155620216309941,6.525413756259287,1.3506610138936432,-1.2610702713335162,-18.141273265772853,-8.82812175525249,-40.09931750792757,-47.993068438584686,0
-46.504932734856986,-18.14015642584183,-6.721858175869764,-7.947050467513328,4.744754252731114,7.482539599856599,10.04158083968599,6.780635494483775,-2.835136939827314,-12.839506840919714,-20.014795229910018,-16.513289325891815,-46.37294729251691,-50.431857949802854,0
-57.827208825649436,-29.82260877675108,-17.404077083656574,-19.746256806079618,-4.139702640280112,6.069762324597676,7.51319775284351,5.463960687470663,0.08849682842456552,-18.70552255734456,-27.0900995352591,-23.530631838090354,-52.6699531053241,-52.29918482416609,0
-57.46875627919603,-28.06872410918892,-15.497504877673064,-14.538695442266604,-0.2508384734999449,9.575955885956326,6.90230620161599,11.90374294930752,11.292967394255674,-4.965617652973073,-24.216592127099215,-18.916150375281006,-49.363365172006304,-47.40472463634659,0
-50.51487724586641,-14.686992878060765,-12.20829534901217,-7.326708651558983,12.49069579908774,11.804047523507215,5.731661960797166,13.422902572589743,6.906995913374253,3.2576865349543045,-16.023651463423555,-12.020467464449212,-41.12931477081218,-41.695665521479526,0
-44.117136679492134,-12.42769572931561,-10.047961569483835,-7.779653946343933,9.176780481262742,7.132618921453899,-0.7482103038309951,5.299152637580387,-2.6411325221211737,-3.1969700712767413,-18.28131621720757,-12.671731564504405,-42.61194593281466,-43.78825495541312,0
-42.86861504188923,-18.89518282135957,-1.2834926958027308,-4.434395878630057,1.8456477744824302,3.629322969029725,-4.396339987469998,4.524649885807967,0.8347867763856565,-9.146371033206421,-22.274540232059707,-12.81785425836418,-50.16849494394272,-47.68705968873659,0
-45.005415884414234,-17.83097110563331,3.0487043597331125,-5.941188034947653,9.525630658799658,7.308980643842042,-0.06996816571044295,9.770751691038798,6.3309945956467715,-9.738982616066846,-17.570688144160734,-9.421883971392212,-47.57540241214151,-45.06315205195194,0
-44.42105161776156,-13.320323182081436,-5.305072870930795,-14.088050288304288,10.540535229275772,10.279627833847304,5.344034719176681,8.095902321053108,4.788654285830859,-6.547263234363234,-14.68665775512038,-9.1702620756189,-40.318833294114384,-42.61943711405129,0
-49.00104740380659,-15.974045132403807,-11.904557378549239,-9.839497620395926,-1.8949076891678187,6.985673054465581,4.804755557252943,0.3091808248919161,-2.398186456895194,-3.599021063354196,-21.4250742289233,-10.636137138991831,-45.35053857509688,-49.79182853363719,0
-60.79694219359091,-23.66055035130927,-12.589127544006553,-3.7454791642647995,-3.7024312027285458,3.1028181041332945,-1.4259287263830425,-6.852602669229168,-10.145052638588357,-9.498863952553888,-31.28274457818992,-15.793550065040492,-59.15025851287669,-62.13899225322029,0
-63.24494422829598,-28.897655632274866,-20.038215235231164,-13.676364113236865,1.3232525564519468,2.5037862845273793,-5.709589180616398,-8.556441010544116,-9.576323788548343,-18.10132330081136,-35.501256098008945,-25.33796285372589,-64.7464535682291,-64.45552699526469,0
-58.17210043667138,-28.916835336375176,-30.24036575772842,-21.19348140212618,-1.8878658497030774,3.664339212046209,-0.9522776400747923,-0.8904433317151526,-0.5973328138633196,-15.873984027275025,-32.495056939125554,-27.30162833210442,-57.910109215112634,-56.73087150043895,0
-61.120569823268205,-28.84591881042323,-31.70729506368516,-18.822904378198864,-5.242863634550708,6.178393131067718,8.748667320371403,15.420307877794192,10.059174031509386,-6.090726027658218,-28.04893885640639,-24.343638872361105,-52.88302141168567,-59.3896385294183,0
-64.13410395768737,-30.1354317854299,-31.949475806316876,-22.01132143968131,-4.691129815204106,7.868681978515983,11.997742484489654,25.607778730064304,15.96461632508128,0.3239548189531228,-28.091076159210985,-27.46427184367419,-58.259450860661794,-69.65818347080476,0
-57.47233151196237,-24.618471364680552,-33.31327369340318,-20.625427929514494,-3.1361120243509566,4.660426299269301,4.551459782196061,14.705772335609106,9.292739775736885,-1.6256344966576486,-32.326551766453115,-27.874059591375048,-62.47357063347653,-66.050736078495,0
-53.70648468060845,-17.90642680566509,-26.723791279862628,-7.518420234558478,0.7840390427897379,-1.2126287772633497,-5.688710590562988,-3.2600012657481208,-6.055792864579734,-7.912504514250747,-33.04068225454165,-22.13922286796935,-59.68837104810849,-57.61084056513552,0
-59.374165551841585,-22.559434088709075,-21.80412435163435,-5.135988488797198,0.985580527641559,-3.031569123027924,-9.488843270550774,-7.024351040588061,-13.97979541472999,-13.687120393645866,-30.321468329434083,-24.552367630202916,-61.79338535957475,-61.765403352862364,0
-62.805693593653395,-26.00446434114499,-27.09682026338241,-14.773231128097168,-3.0579901279942048,-0.574288831643222,-9.55679794587869,-4.007798814553622,-12.196281304138736,-22.10175656262146,-36.49476701541304,-30.85382125832389,-69.7905443589226,-68.2077000817869,0
-57.10618173153603,-16.93333005344269,-30.160174473376827,-15.549807139818064,-2.3750738634867385,-0.94094224381075,-13.663871539013188,-5.624074374558806,-10.677798178665698,-26.198552534109922,-44.31504780228144,-24.669161762107084,-69.88447043781449,-65.12997090652196,0
-50.33558035509169,-10.51969380537592,-26.691050448592677,-9.512380355662723,-0.4965412303032215,-4.102168620477544,-13.667460179434752,-3.769311726487709,-10.51723948669127,-20.22156177358228,-38.69670010924973,-17.552271824349905,-66.5007752707,-60.34378176686587,0
-52.24621616271166,-14.779863244036296,-26.475996717150164,-10.6790011089278,-3.5019948095679343,-0.8606847037857133,-2.2115924277833776,3.9485125590845263,-8.552015091486162,-20.02294472552158,-34.93356592870267,-24.35053738050996,-73.36954957990051,-63.323682513201874,0
-58.363560021757024,-17.582584297525518,-31.03332362352522,-14.979936610553889,-6.186236737145054,5.700932593272265,2.02609218227129,4.689679124596207,-7.243858029148939,-24.26353350870132,-40.82550948777703,-30.197933478239555,-77.62383520971893,-67.40060110566795,0
-54.00730693479939,-9.580379797983644,-30.018995349390536,-11.411140123969375,-4.19572216531969,5.333511476431151,-6.656589569708267,-3.4397758205667675,-8.452019858555103,-17.54377886174501,-39.827102877881465,-25.78297075562532,-71.0404709652981,-60.91678458058078,0
-36.64373632076376,3.197478652346872,-22.362803965876132,-4.1393486230844,-0.9480585756944295,5.2446720392752715,-6.757781650444796,-4.778878920548745,-5.096023043691807,-12.398828556219536,-36.40598490085438,-22.69870397660422,-72.47516620435282,-47.789478845692194,0
-19.28806135511816,12.493800607787414,-17.88740330859669,-0.644464817540225,-0.44711412327797406,8.483361113701699,-1.0709787084486049,3.4706998772809303,3.0047596580088607,-17.6659290305598,-39.04171842168166,-22.657531865595857,-75.84394741281164,-37.48456260732045,0
-4.14498170372867,28.631360662308246,-12.005009069676419,10.047550494603495,1.8352449103315038,0.6345306912849906,-8.757786566501212,0.16542287393596622,-3.493892157246904,-20.45293155410343,-37.003258592384206,-19.75938722640399,-63.574955729558575,-26.546461917045754,0
19.551927300881154,56.77370289261472,-0.10564696747413604,30.374045673587375,7.336445503273108,-10.932486249943857,-22.185188342416012,-16.363758530025027,-20.003556061046844,-20.440560050774327,-31.19989420251093,-16.458884879153384,-53.152785345632736,-10.03861771325476,0
44.87888570635225,74.95059789736119,4.362627988099505,36.42702888433633,6.203611988887997,-7.51799288591629,-25.70260064287035,-16.929612701263473,-16.614216899484838,-21.847562665727974,-28.842165065384023,-14.818370440195489,-51.44886244139047,5.615241276311085,0
55.73175409592068,79.16898381421898,-0.624211703285221,30.0003364032031,1.7037916468451633,-1.7259967076644998,-21.711645419561652,-4.880885041130677,-9.761538288097881,-24.595187448392377,-27.34360001343121,-14.723706481787065,-44.73387149803069,13.733162617647292,0
59.74338471939317,92.02961776855248,-1.9266569680727472,33.903399052077006,4.535353687774225,-4.3571191738971775,-16.522996874263296,-11.5881729295462,-25.724796520610756,-33.211684340756406,-28.049726769271885,-14.68755812785648,-41.033383231366614,17.884400672333115,0
72.84381845606144,108.78782461379362,5.0367897465322855,38.00963349230717,6.249840054395666,-1.1978658770764432,-9.491144674531812,-23.562792562237775,-33.24706165752737,-37.83742370442926,-30.457544967525592,-9.181939581985267,-42.804158486603825,27.2221452865375,0
89.54872290638247,110.66133582522819,14.373886951369105,35.65609477899815,1.2448286998075204,3.8798731400816853,-5.770413351083288,-18.55428692721516,-23.054381147040797,-31.75095320704907,-28.40430146047077,-1.3316685850644152,-36.73433320637799,42.465929662354526,0
96.22937731522667,110.76870521588489,17.359074603992383,41.5247352249565,-1.7630695940237566,-3.264483798562714,-12.188088218143857,-16.70687055448638,-25.58601275319849,-31.69289617207417,-23.77049259963825,0.9794277557747666,-27.13877704975988,51.63572403138665,0
100.25443691961163,125.75734438882063,18.802001047042246,50.500171338667286,0.6913676527851513,-9.892198015867258,-16.583428710228045,-18.853697750644443,-24.40062332205008,-32.79416854453193,-17.947081784092582,3.440753817174725,-19.42001821501772,54.56477511298239,0
113.66699320714136,142.41543697598405,28.754157242943535,57.009395804393115,6.8888649413113665,-5.898682997278539,-9.175709912012657,-5.607519965346551,-4.9808020958476344,-16.760574028025903,-5.3430654409210945,12.51691962012554,-6.904586450109175,64.50308208222013,0
121.18161080982674,144.66561377882692,34.00729090409298,64.86515186167203,10.843771336253642,-3.6976957476042918,-5.46440010905081,5.751787612376802,2.592646548299947,-2.156050574624648,7.518577478856171,19.684274800572776,6.6210977998796245,74.25345281140434,0
115.71051475258767,141.10428388366378,28.73041024828443,68.21323172484252,10.238012682246282,-6.428207543057663,-10.73156677678449,1.9760409176277425,-3.000252198604833,-6.393676072926119,7.800916314157548,19.83460502329862,10.34635724672362,72.75732567804859,0
118.14950823500146,144.2078795074587,30.977682676458343,67.62949403238453,11.063530392152384,-6.264489493182518,-9.223330802388052,-4.385742683816838,-9.432740756413164,-13.00000498792597,2.3946848713822106,21.122474876792758,6.493187847718996,71.06948997402439,0
124.9717412714177,145.00570672651358,35.20608497127974,65.06733148800437,11.729949506720299,-3.883899504861728,-3.1402079768817783,-13.82011241762038,-20.842748274081384,-12.538074332153316,4.47395591137909,24.14636649755489,8.68651023781154,75.75850429910399,0
123.72531716405409,140.51293949894023,31.038172930190374,60.437503625944224,12.95673772299056,-0.14992081812005886,-5.747006568437859,-24.502528140746175,-25.039829939513734,-10.427486206530947,11.134265147957782,24.46452304112851,22.31525510767615,84.34686766210989,0
127.80277219676819,143.5505483485403,35.64336615566114,62.71764360217477,18.9251907522745,5.878847705845376,-9.981195095606944,-26.69135826799694,-23.211066936072562,-8.446770936508994,14.551094961857657,26.11514568200272,34.716836657434655,91.21237480760702,0
130.30190262868012,144.36634068591624,46.392960605091496,65.91141687856435,18.23978798125271,6.420230202966273,-8.387058498800592,-28.737843766422642,-31.822630682582325,-10.406683754178381,14.701903799153682,27.720770746920074,35.169237089783635,87.81170082067179,0
121.28368591800265,131.85025658282956,46.29208644566548,59.30752350063631,6.8478269727070264,-2.807476325758695,-9.183503650114066,-33.83400637013126,-35.69795359062227,-13.119882410938674,18.00773404395936,29.051262294203244,36.117706564897915,89.1953030334563,0
121.84407440196796,123.8223041072563,44.996331262556346,53.149734599221645,1.3227276825683454,-10.095012432685383,-11.038155299632516,-29.507509523636266,-23.475773498518656,-6.168954186991226,26.48669471035751,36.31262274549517,49.08903835927373,103.39226173009357,0
126.90979722598868,125.60147697064801,47.6041833027425,53.11485109854122,6.10022246250966,-7.4618301393936814,-6.264723672947435,-21.87486476331747,-16.654492578115597,2.6459526139843406,30.768290650893963,40.029230276711004,57.171104033838844,103.28992913576012,0
120.53139337081946,122.3844613382691,45.595384884368016,53.80573773479161,6.472482410679312,-6.522924606002881,-2.5548899043534905,-23.811698075296817,-23.02571281467479,-1.426966191934052,26.411243242277507,33.68985482372909,51.55326693626796,92.02002753801267,0
116.99982775557353,111.20899586279741,42.44567075835079,50.617810061907804,-1.3850973669393545,-11.734753067947535,-5.819150504992354,-25.635663348890404,-26.691322800477106,-14.285686528701532,19.06847243154416,29.08564812476257,48.24412618010931,93.4392007202616,0
114.370172327152,99.85998182738616,40.83726962479497,41.93744718103885,-3.664067029268173,-9.024588984393896,-9.523025526877785,-23.85635901069376,-27.294251233967188,-23.522649446231327,11.87507022271353,27.335567508348024,47.273722278349545,95.20294701238794,0
110.21696444693306,98.43849014368277,40.01690950208249,38.03996320811569,3.828692940963943,-2.6753142087145068,-12.056856261374268,-31.474331050121044,-33.09302979839806,-20.77018981532051,15.125893128070771,26.48138355512582,52.114889368103334,99.88114624296992,0
122.34610585392889,104.54069801425746,44.77272321617255,43.4091519285964,7.333532706467113,-9.119342841371703,-13.897042688370714,-38.66308658789991,-29.011204714793394,-2.67126513888394,37.41500599428358,36.339818218721966,81.23238598861742,125.3871141107642,0
132.40477576703725,99.00282094776166,50.88209346673185,45.79648351627195,1.257535324825884,-17.545259390930394,-10.163743852631452,-28.23641684770461,-10.793882854866606,16.916525834414603,54.74351685805054,49.00991264923024,105.58517260851171,138.26703358911323,0
117.71705991981207,81.54960277904925,47.22696610342153,40.56367291150946,-4.175052976032262,-13.458510359144928,-3.8528903469408102,-18.430297504213087,-7.012287659234447,16.686375735099823,46.63135795048747,45.400696993751254,92.2218056312757,118.6132656671455,0
101.8539023313533,69.39067783296471,37.08274170821235,34.309249773073,-4.3927514384434545,-6.795841997833074,-2.7500772737939503,-21.62520786893236,-13.42180843806306,5.728064366230065,37.38826270259811,36.12808329800564,78.09788117234044,110.04949789972103,0
99.14375070349864,60.05843364763716,34.325265011840216,29.657727356207975,-3.986391043285674,-6.926160687042142,-4.994477113615364,-14.969138450454537,-2.0221027602439654,6.584442114878923,41.644109724120284,39.691545524771016,83.34865800627627,119.23912468733963,0
95.55753879381807,48.514172611449595,36.12052440491168,21.823351583163557,-5.792589826733491,-8.514523805383627,-8.215398878421937,-1.6617120021154101,6.1889176539368105,11.72272471213758,38.34361538609153,42.660637654586274,78.14056361305545,111.73651641197758,0
88.79248663581205,43.273724090492,26.04348726191692,12.425876081034803,-9.100760554810314,-7.992716692351193,-13.360564872924716,-5.604935315445749,-5.23540703882807,8.93117074273205,29.131465006175954,31.50040365757127,71.13396570853462,100.35278031912199,0
86.73309692925595,41.42541941486436,12.021707188674887,13.683239405319597,-8.611870805960667,-8.246149814278818,-15.172106018258663,-12.129887836553909,-10.271983978904236,6.0169596976799635,32.677545019290406,22.553112269887464,80.85387001902431,104.50749329156878,0
92.81973970484256,38.80892049885725,17.366407217070766,23.192974909551886,-1.960973631501099,-7.062505397078248,-12.048761573564107,-7.231552202210763,-7.892222005148469,10.542970577053833,43.18713273989934,28.43333537637307,92.02880068919856,114.22194685135685,0
103.14384981518842,41.62797547078082,35.01757210204048,27.213686267407798,3.4206237250832476,-2.7363083841370157,-10.813381065930157,-8.23720333767983,-8.933866073392974,22.615795976033667,55.88750034969511,40.93063195894745,108.55631507582372,127.88478771720781,0
106.07855953049051,45.06242334929946,41.54618227116523,27.73483402861035,4.194100857912479,-1.1752047626102389,-11.290351407075761,-16.407886639784266,-1.948971506617334,31.52822226040215,67.99494855873093,49.9855520188893,127.74592134428623,133.51854640452575,0
99.08970107028371,42.314601741928115,36.50088203731722,27.464978384010905,4.108093390577516,-2.2848154006252717,-7.9617197055023095,-14.289561962707028,9.282388648515862,26.401151600161903,61.7289215713069,47.10055795436787,119.82741853554288,119.60416714818558,0
90.70550517532891,34.052172606490544,31.833695854147972,19.929988877626954,1.7336277186302453,-2.429614054734914,-3.435684390120454,-1.840884698618484,13.825639573908267,20.284424476637074,48.13232606946234,35.04150363753388,101.07548722754663,110.34289927599141,0
83.21947039054126,20.26293088018103,29.2956264906436,11.81834403824844,-3.0449695567414317,-3.041285811781001,-4.553203035843481,6.763279663046729,16.14603118204942,25.001311458890612,52.393304654521884,32.349092860414785,102.46312233798005,113.4049016154494,1
76.41014355473989,8.753215415677246,24.19203268463072,10.655481830045998,-7.258679515597492,-5.079324794631832,-11.514739941868827,6.052458023784513,10.21398767484709,23.973955066964074,54.31906703428884,37.578333958794516,103.03080150198228,107.09792101557541,1
70.54237889068999,1.962129164130964,17.969643055391504,6.268229454726757,-13.364566700028183,-11.588833186408175,-18.610270550017486,-1.3456474097960909,-9.455293252215627,6.644773305526339,38.94817645116415,32.3591847586134,87.34108775505847,94.11063870210671,1
65.1444482512106,-5.54687570032096,17.5991168722786,-2.033034064910197,-17.32970531884592,-20.081342169271977,-21.585580397091487,-14.344435290305244,-26.015902227540245,-10.203642671549698,31.553809859567213,23.900786779387477,74.32508310935764,90.4322452152725,1
65.11249512767137,-7.332375836533188,21.542246453744234,-0.43485629345052956,-13.770934309211427,-19.50977008337437,-18.94836993383432,-27.893447382249246,-32.61101091302843,-13.812708605698775,35.5176494619418,25.622406550705215,74.6721675890602,93.26836855452423,1
65.81906360295477,-6.567905403337406,21.18940449798213,5.894843215440467,-11.714508966839936,-13.71234775978398,-13.0766922157551,-34.19472319166456,-34.02593826998347,-8.93450007562133,36.67152453695681,28.721840644508084,83.83081005568765,92.4905871331988,1
57.96873832503715,-10.679108083135166,17.007467708462144,3.534640064573942,-14.050943019356883,-14.529999427291687,-10.180391780628016,-27.327650357135894,-17.77088773988754,1.1233703205472665,40.35114079864691,27.664013086931202,89.17410892836375,88.06131965591675,1
51.36139985095175,-11.316961375137335,15.447745977017478,0.49529685891884867,-13.270748083923342,-16.635136371273273,-9.660654342831865,-5.282340510875046,13.821124021007321,13.876819187378489,45.296626884207356,26.324658606598604,86.17458641897747,85.1558775886625,1
49.765191723956846,-15.348163265249049,16.149807148148913,1.968227182986185,-9.859758149862083,-11.107935320701621,-4.956129641512794,14.304637939580026,27.38603910207791,21.251951696646564,43.28940663793737,22.61862990802076,87.92918844861288,80.67655453042498,1
42.48135480848115,-27.280966879304387,15.31943676605863,-0.47386153247871654,-5.4385608466658635,-1.608152790438866,1.8220927869522558,14.281692727685169,20.060600368810416,24.788802171810417,40.56141842660932,18.737554001883268,90.10911450578512,71.6604636187823,1
34.62620168505,-26.4985575974627,11.18140499565083,-0.4643636438119394,-0.6533752426768199,5.095479586468881,2.477022804777799,10.901685925182763,21.341374253262437,28.73335044249069,39.65492495293766,19.780387472071986,80.02308691679576,62.31842892367802,1
32.44881948448569,-16.838574488575276,3.4719315928514547,5.156157954687767,-0.6570744643443245,6.263133365282645,-3.2881436353493116,13.362465485320456,25.291727639724165,25.862071635438348,36.821508468527156,20.77578955403262,74.20450404238419,58.358930886114116,1
27.78392369243,-21.587415013696862,-1.6086693689873908,0.6358925176301309,-5.264525695167937,2.7187326222240857,-8.948787857247769,5.312002078430133,12.634964472466994,19.29924058308473,35.600769715118176,18.084608822101004,79.36146703967478,60.70689939660821,1
18.898084221520918,-36.15985936932257,0.5138976039655994,-11.72021932579362,-8.769861684311568,-3.1997560890453034,-11.52266414854604,-6.91615855118737,1.9698635396206945,17.885404258043017,34.1805572868759,14.1301193725094,75.70196576014933,54.75802761613075,1
11.192287431341526,-44.433781301573596,-1.2254248325411208,-16.70370910748506,-11.363710975059291,-8.473063024133841,-11.717038538725582,-6.420853966661501,6.915060871815402,15.304099483928633,28.39298715136333,9.12239293296782,65.61298347310748,38.472978759588294,1
5.879499625246801,-47.73152124907481,-11.576367443272682,-18.96715371852626,-16.388802816687036,-9.059057442160341,-8.845055180590446,0.3421886104833032,11.921949900576061,11.075481182938601,24.579921086595547,5.12834271666908,61.246505092966835,35.07328962490327,1
2.3901589826130305,-52.90404377998103,-13.161530877916915,-25.217380259010334,-17.473387779140577,-5.787634991137053,-2.9241193583949197,6.1541966570692335,13.227348984198706,11.38641438542068,26.21590506006233,7.71263890325435,55.562239817692316,41.73325737902215,1
3.09678462953557,-52.24479341134687,-2.1384396040404496,-26.79294027830262,-8.105434562282705,-3.814245495684376,-0.30152600916073435,10.550163520682677,18.51217794171085,14.84320352251544,30.41284740555222,16.231320879300178,53.02528901529135,41.03931599238157,1
6.992696460393546,-44.81151614443898,-0.4240901512513826,-21.47051296301713,-1.0034384630196418,-5.481762564423816,-4.051378499211948,10.53433970271762,18.77147246585954,17.964076109734552,31.379502730925253,18.116174535076524,59.92646134969861,35.975194782721175,1
1.9345652476635777,-51.182495076653666,-12.818894572750066,-24.239305623090686,-6.060063391721567,-8.996775571568243,-3.0247891838233056,8.046012141988147,8.053217029741933,11.914797167873065,22.78770327330989,7.315291115638654,55.70430590708574,24.88368144948035,1
-11.08331681710128,-65.58136237688134,-18.800835489397667,-37.39730977296409,-9.588522566680306,-10.272580748541596,4.6982526132370594,5.529731331377572,3.7951886371838257,4.394188052062202,15.688104212766738,1.4145299992405551,42.13703442265137,17.838366932183156,1
-11.353017777019431,-62.636452641228,-13.42411147217892,-39.482824628689386,-5.071838229198058,-10.503676438684916,5.266921684474415,1.5742861678083444,9.619665299301502,14.930635978515234,23.37908584333849,9.685151802148818,45.404878968046965,30.100040906779782,1
-4.067267474062419,-54.89049985165255,-12.428965637914331,-29.80500646543065,-2.34687524723,-11.22091673769744,0.3631805452818151,-0.5973665564463859,9.992667337329179,25.529048943383824,32.84255740578835,13.460529075785914,52.437317502199086,34.86779674791254,1
-8.260814185595983,-57.56297478906147,-16.121899976839067,-30.67900352116594,-1.9134616529060842,-6.62803944509977,0.6002056397519882,4.416193757702548,13.604971773771405,23.527404433542376,33.270491002252186,9.485445424163368,49.4831375154276,24.066505533570094,1
-9.704762527379955,-56.891457475870766,-10.209239540345475,-36.52591263959215,-1.8731302320373953,-0.0756534790141199,4.197537925740498,15.812822404331687,29.859240905283162,32.5948679030395,35.66680944244516,15.349369791548451,55.35943105240949,28.64890528738809,1
-0.5974077728822067,-51.26660002639477,-2.2344159170328366,-33.18168910163125,-6.4209412701436825,0.3505294528055529,7.375627543288959,27.238996544835103,38.646994980927815,42.681816582633346,40.66787171613032,23.086464308971212,61.07444213826542,36.640648475835576,1
-3.038688893894772,-50.91470965532662,-4.64530936030563,-33.52504934346322,-9.07696864427813,1.4022440195719854,10.901150159226713,31.284921893425945,32.38215886292223,33.53897722963407,37.96656848959687,16.771566993628895,51.76203031581913,26.29364045599464,1
-13.889331447577387,-53.84950063270941,-4.565401799685309,-37.269357839865904,-1.7474383330047292,8.189608854599426,15.806119504531399,27.382606339938036,27.179542083416944,28.20371620759198,32.78897677914962,10.574747088348003,46.19782474413105,18.527623467477575,1
-12.227713909121746,-54.22338208766458,-1.1519696042550631,-29.898542349740282,3.7455695668478635,11.221678370932054,20.14058433135405,23.80207502336006,29.393509282056883,34.29307715189732,31.580440045044856,13.076515048711576,45.54442153925211,20.692640176903517,1
-8.236572348193466,-53.7342685180917,-6.551764168871336,-26.62185330525121,-4.797273283902341,4.602541836281923,20.558285287354643,22.82943552505752,29.9459195807973,32.28318712824561,27.48669302302997,9.872282351496699,38.04603543376416,17.55887566650531,1
-16.219474736965665,-57.726484109455555,-9.205659320909426,-37.04648476564288,-14.193082591707837,-2.998603059273349,17.746326963285043,18.950423329547977,19.960505502462347,22.857537401662093,18.61737102921119,3.758067846708437,30.855502423532442,10.94494736132605,1
-25.138814352955773,-63.758556758701616,-7.637059451207567,-40.485804183879026,-10.921513249735042,-1.1132570665755606,15.40259909591235,16.191737932321768,11.421872235818935,16.717307519354,12.991312944998949,5.675390329859713,24.643714673514744,7.395339780396917,1
-28.40170599149632,-66.4014929228846,-14.78072790565733,-36.11278675049506,-5.967791405904292,5.880652688084157,15.445756743482569,22.319612850677768,24.11844830698402,19.23087537636465,15.411636943386355,6.659345158938301,21.904185258496064,3.8520740826436395,1
-33.29332085228394,-67.2328869763435,-19.803972820419197,-38.479918632130065,-7.8828847656690915,6.493749494811596,15.884484494680844,32.1534950827904,42.55492449215143,29.4309761283989,20.640333538993822,4.1103597514747285,29.441423326971147,-0.26912048417270285,1
-39.535428311588674,-69.2918380064516,-16.88571333293104,-42.27258748962778,-9.942254792895366,2.387959021203327,15.06215528461,33.28558575835284,37.9075491729959,34.462133557040616,19.896012456893217,5.553114905340761,30.72905549114109,-3.107151995916439,1
-42.419556226880616,-70.35616384859082,-15.647791683256369,-41.71433516017322,-11.122483197460696,1.3729168288265692,12.47820464293833,20.629450748305675,18.136354001941697,25.90258080645707,14.997819359130974,5.008348390390459,19.589705932539324,-5.413058577823051,1
-42.51437922946901,-67.56131049463353,-13.632323642316505,-40.735756504274995,-13.382247779844462,2.3058775585269164,9.345683819573356,10.673999120736761,11.317084230550611,14.773511030294985,12.198808322469201,-0.04147873222304632,15.004023226328329,-7.428883430125346,1
-40.67686927387125,-67.21989739293451,-11.190316011875318,-41.263723434357445,-12.734558618239113,2.0171363985916626,12.239750170466484,20.084342734898286,22.74493190142805,16.174283779690406,9.805339543540594,-0.7725111426238644,16.893668993692806,-8.95371874035116,1
-37.847692710190486,-69.15377088320793,-13.392058254709822,-41.442246117515495,-8.313128662967758,1.1318254400992402,17.00288604287772,27.53938949030969,28.745065298453667,24.024279672702676,9.256542153878524,0.4695303010716252,15.357564954419825,-8.780975832198397,1
-35.825262110515396,-61.37282150132556,-14.819519439897277,-37.112439324706386,-4.889934006931042,1.0689375761174453,12.350644773214198,19.309438971073984,20.614033922082044,23.1335808173215,12.302677516534153,-4.357369206835548,16.238574078927524,-7.129806875510763,1
-35.20154851879819,-55.924602759471846,-12.328079936895666,-33.96245318963239,-4.450092626678941,2.102211495735983,8.932136677448739,20.701998037289105,19.691489167043734,18.10852993144352,8.418775336885853,-9.366159606887141,17.369768337823086,-9.298390339794935,1
-36.11954905446319,-64.41887443102452,-9.543430383817682,-36.66932824740817,-2.599902046741,3.041549026786455,15.46281391540239,27.979612649285016,23.49719724949211,16.23992830473962,-1.0570760653126428,-6.291476752509637,9.440939820411867,-14.839931233090589,1
-35.06755519071214,-59.42138197002182,-9.35658013679368,-32.014270756834776,0.491258810159235,3.6720556507176827,15.711477840630693,17.52579129152845,13.729395187037456,13.585145656287493,-0.5877544857981327,-1.2659384657702706,0.5246780949343446,-16.519046902023092,1
-31.307913125203786,-37.88953131856036,-11.914098083232348,-22.947981188874113,-1.5486326715080452,3.9459105892371853,7.847057452392076,8.06608405421711,6.4678767035573,9.619754880138812,-0.4351698148068053,-1.5950916762394716,-4.486148793285064,-19.51322352071851,1
-34.834556893266836,-33.22566910465096,-14.021686512856046,-26.02931305888625,-5.600885714500851,3.644185560456139,8.122428675841299,15.72337452829649,13.426528711465997,3.756653455234183,-14.358297517928616,-6.344859989657075,-17.300673265671612,-32.755083765997796,1
-43.54930757734434,-37.95476403944731,-13.350718787656444,-26.644637796632754,-2.79544193710875,2.3581073305110567,11.993750718189098,20.06431839237521,17.01933963545183,0.02076235157188755,-21.100295355923723,-13.945905267639247,-32.15006987366562,-41.89285241748864,1
-41.64973344917906,-27.623873752405594,-11.428518937156033,-14.882453624493879,2.32722523246012,-1.091839800041686,7.224190176914661,12.887627340658044,15.369724257975246,5.795353895294561,-12.776269446643692,-19.01780057104071,-30.999580779982892,-38.353174806375804,1
-37.882463903163966,-20.121891747609677,-12.815599560183804,-13.55259082799447,-0.0021642446634633217,-3.306148459944526,1.7917181456729265,6.412294022046572,13.592735101260473,8.305387445199075,-13.086246478293756,-18.56100080916416,-25.33022692205919,-43.48301853852945,1
-49.56507402650453,-31.758406123829648,-19.02101068325503,-23.652151243965506,-3.2011288972050207,-2.213072825498127,1.689313957063832,1.3408112837459392,1.517803240264552,-4.417729539413161,-24.848038760939627,-20.46467239545131,-33.484360224319516,-57.26683544151658,1
-63.28878771343725,-43.35775120335887,-21.56673322205796,-26.09987794106068,0.5108354931953563,-2.420878592389216,-1.7168252846500076,-4.141171481895984,-9.351075515203142,-16.67686735342761,-32.30965219124117,-25.151255230791012,-43.9398470417637,-58.60187782744222,1
-61.2393390472823,-39.566670085276726,-16.818910676779602,-21.82513710207005,4.25457340767878,-2.238040423580429,-4.425276123041754,-0.9833928603655497,0.525077546454316,-14.184840265399506,-31.229283167700256,-23.432092226582185,-43.67530463872467,-54.039224194309284,1
-51.208966104877646,-29.641020345222437,-17.01411344657013,-16.965898570779895,3.835212780072828,1.024159742556224,3.599246481217328,7.434402406063184,9.300759820003146,-7.250421930291193,-27.83616973679915,-18.947274253869814,-39.975589898835054,-56.917248700529626,1
-51.29491432578335,-27.447682153222253,-24.935153780829193,-16.972652748337005,0.3619205799048437,0.7564520051468984,10.915159921906996,8.384310663306316,-0.6417453955987682,-10.535588894947622,-32.47548087970889,-22.734937417343062,-43.37505632345219,-65.24276266640373,1
-59.2523003688741,-30.80179552777751,-26.157992279125953,-23.85146363663936,-1.1881620730510734,-1.6589244012414488,8.413880338668111,6.80718319917089,-6.0766207074933885,-16.91094073620836,-37.7284371539032,-27.640831363912053,-50.50902749737931,-67.22275688598262,1
-53.588441065149915,-26.68561185014515,-17.846826716117295,-21.226536805783063,5.954662561638175,1.1513894216058755,5.301011160961606,8.028043626431803,1.014566044084125,-9.800613605302152,-25.360221836007604,-19.467279874637775,-43.931807314165674,-52.978856880177545,1
-40.55037495169593,-19.62073366213974,-12.611360557721966,-8.744155868652996,10.461733062223036,2.8291415621301184,2.3690339683972415,7.0878151028211756,7.361965630651477,5.176373222280931,-9.688991355133979,-9.529281775059719,-25.07119863267575,-41.38342894255787,1
-44.78359376698081,-24.484903136083055,-16.462486439317022,-9.662880789707256,2.440308067670869,-1.5651286236209652,-2.8275293289664667,7.829702385781863,11.488339031084703,11.437113758181116,-11.10835006260845,-12.806825251312357,-20.974750709394065,-49.867303376843054,1
-55.001264810527836,-32.594210101710544,-22.68460704760297,-20.768749736208132,-4.056207761728356,-4.946445270394243,-4.183081910186344,7.821179103122678,5.793768144968654,5.877571146162383,-17.35446557121505,-17.85916587767386,-34.29660820825997,-59.99935813710093,1
-54.97186134539954,-31.934406485559986,-23.158663653444762,-23.251956933338008,-1.1147821858335294,-5.331314728905523,-4.269762461498859,-2.6361188911642275,-11.228464421443444,-3.369389074218282,-17.919619544875847,-17.983612887057845,-39.049057230681214,-58.205535184895155,1
-54.24673897173086,-30.4235188343253,-19.08405762141261,-19.555284843246962,3.976352171520159,-0.9929779452993939,-4.179682011381457,-9.852538349502046,-12.79762044307613,-4.600463056203038,-15.832417209305007,-19.633199771623058,-29.65453519263879,-53.36276252815559,1
-54.67673257729107,-31.569796009228337,-18.913054275951918,-18.31836324426282,5.116198020877434,8.445803117549627,1.1291309314936893,-0.7925702137408841,4.184366898752012,-0.6727671520215504,-15.718342778667367,-20.36249792648731,-27.256061043500445,-54.72848416976498,1
-55.67825116032525,-33.45491495176829,-25.409031840390096,-21.41185382086266,0.7079174824181438,6.458238945815149,1.3396289828586725,6.800262237739075,7.928443422605115,-4.434754218465932,-25.29644219337375,-22.106503856035786,-39.39141242018161,-62.18178161232053,1
-60.04872883701247,-33.904121056156484,-29.92596556625362,-20.708837490645262,0.5087419063102205,-8.065307801143462,-7.840370414061736,0.09204383159289531,-2.8216205244670567,-8.082813515099584,-31.843931879811176,-26.731701527791657,-44.62099300121676,-62.96080870017809,1
-55.45122675485386,-24.574476239978598,-24.081266829612478,-8.290491656973607,8.381407928721321,-10.07003509679019,-10.919096400963191,-5.764273503513863,-3.6483377685152405,-2.2028711053026067,-20.233255986889493,-22.483007709932664,-33.141083283625136,-53.001339240882515,1
-43.48153467332125,-16.865832720548877,-13.30743155044879,-3.630600980223509,7.982301014557273,-1.10427703614742,-5.2173613458513,1.4549911314430357,3.3769875198072086,2.354082541810117,-11.28542915572546,-11.10940980187614,-27.12605842362703,-49.23906766893806,1
-45.978083296771494,-28.109210691861964,-12.343947907760072,-17.89870657817493,-3.3105297369194346,-3.018359746254178,-2.0057077519369857,9.942877490390291,3.986372177718624,-0.3114722294880474,-20.000123451785818,-10.48255965751315,-37.09712271129011,-59.061662743761154,1
-59.68316222676364,-40.29255095630546,-23.584169093657966,-25.325846431660707,-11.681003676647734,-10.482545347440002,-6.210629701634785,5.829068532245021,0.15918406127838036,-6.74442256334022,-31.326102333636367,-23.192632853813862,-47.45241635626096,-70.45164406012402,1
-63.75332506197947,-35.78236329036622,-31.66601747489633,-19.955378815267217,-13.132332107014813,-8.861143012357818,-10.055660546702526,-2.490338768447441,-2.57095068571907,-13.87039065502518,-36.65784037719645,-34.87137997531217,-50.37672940215477,-74.8779397468126,1
-59.97072316473397,-27.471915283878946,-26.85845916093703,-16.372308869959088,-6.567627782917529,-2.9397177535408234,-1.0162211144514615,-2.079719037932775,-3.1421232291906245,-14.613534988520454,-35.885761590353454,-33.71540624039318,-49.153246605224346,-74.09443960311607,1
-58.97395972700311,-24.827316063842122,-16.571151643009948,-9.997568326195996,2.64180426567685,-2.824208940691211,9.645240697447846,1.9634360533101693,0.6651916145613139,-6.608323316848875,-29.208240363087167,-21.314855629801496,-43.1550715154903,-69.30471604609102,1
-55.68828181217137,-22.55073010324273,-12.11275795726214,-4.045929517014118,3.596322088578075,-4.747946736402915,6.622767653467905,3.88855563453851,5.943118885900157,1.3065439377093258,-23.947612864340698,-10.868275095853317,-34.427799604638956,-60.642819254710595,1
-51.04096417638208,-17.98508900983885,-13.93155777499586,-6.6824491411509115,2.6097573190480112,0.699036121211331,7.869356848113619,7.973538219991648,6.313535933248766,3.161458492960733,-19.28107221395876,-10.329163873191597,-30.1254037579863,-56.13727772597367,1
-55.09107947663729,-15.51465227317934,-14.646438065003531,-7.511717731698198,5.535416059466982,5.80372647307488,16.9730659994128,11.42079500379711,3.9618575958092928,3.347221233727102,-12.313571970957689,-14.68017521743198,-30.117671690817996,-61.51214649358349,1
-57.46778116596607,-16.025464007804114,-14.512302418469446,-4.051215090266705,4.566072735996012,0.9883417536667456,12.449568161709859,8.828055812337,5.14442507641514,4.412151501998371,-14.061990405707967,-18.783898757033214,-29.672534653420563,-66.50173017096327,1
-50.29128870193321,-14.399204796528664,-15.080235518041961,-1.2163133774090298,1.9109305868655881,-3.960563819631628,4.067708521607614,6.181588166670462,7.697060614600707,4.606148253945724,-19.618072138959704,-18.049052060123177,-29.529156726798877,-62.45355867031033,1
-51.27613135988625,-13.788755795598952,-13.019025863836482,-0.8052433527097786,0.32292286660207015,-5.501484573092025,3.567011684879583,5.5453298583395965,1.4877326879315942,2.896173156808285,-16.37586393932841,-11.231101049456539,-32.186804588725,-60.869224018996185,1
-62.273536356057235,-18.91593200811458,-15.536579046948322,-8.946941808597618,-6.857629417700591,-10.688529232543003,-1.7859910175774059,-0.5479925465281434,-9.72919739235979,-5.065285370780666,-21.39703707370697,-13.22581213518312,-40.619122157168796,-71.6402983644374,1
-65.11717244827096,-22.803891860378727,-24.87438763602054,-15.481014094792394,-11.60122307179915,-14.903976076600621,-6.045590268700144,-6.471994805366929,-7.651904948638197,-15.525794449096392,-38.6001575740315,-27.33398044097331,-50.77823324100433,-79.84269182480746,1
-60.5184654734617,-22.079622450678375,-24.187061322900647,-8.88204921876618,-5.358721308596612,-12.481884495944362,-0.1968872210405772,-1.6046575430521308,1.533203525099851,-18.168548869114456,-41.533989559474534,-31.33599692782323,-50.921514566933496,-76.15893483920837,1
-59.33844067970179,-20.921787171113028,-14.654821662270171,-5.239312879799694,-1.4917144691465933,-6.7512344951783465,2.4296586173496055,4.113510746728905,-0.44862992550648784,-16.18926009626535,-32.18034844740833,-24.029309008244905,-45.888584038690986,-75.2537601132985,1
-59.40957753520681,-18.782640349544625,-13.970004839940271,-9.74805254499524,-3.879933851315923,-2.4720169833055987,-0.6789979639095276,1.3390746940121385,-3.4757351068275684,-11.12486313729536,-28.273530603924318,-22.788599865061776,-44.28192758152166,-75.07851262807345,1
-55.05847370020284,-17.902165349674195,-16.12067747000548,-9.300999083833332,-2.079025297627701,-2.797120921810334,0.13093755974172794,-2.042279850222197,1.0755905005756503,0.08245171313889244,-22.569188259359436,-21.153736928385698,-37.789437531379804,-64.3372817910377,1
-52.684821682844515,-22.837785025639416,-12.500843385131095,-7.232911458944146,-1.4612162427365147,-6.68872784322405,2.9837961718029775,-2.004821079533924,4.294415960094753,5.119737130842024,-14.57336772794984,-12.744245866119766,-31.02411984773179,-61.336724670205676,1
-60.022017323412825,-26.68040097465901,-13.068012340757098,-8.599980621441198,-4.717991964191988,-8.683360166554765,4.960795569157544,1.05200432105087,6.814487776345153,-1.586020882197111,-18.001562421308,-12.107969669507304,-37.40432102011583,-73.8762444012861,1
-65.48438903347761,-25.80697185904986,-17.5492455617687,-9.394302019977781,-2.058930163384291,-5.225861903939634,7.7646271637427375,6.112741065878376,6.9149344605533605,-6.737499890086801,-26.49099356062017,-19.590791603367222,-47.35901997284982,-79.27715889009514,1
-59.81135574158728,-25.93026746042234,-16.762357392650415,-9.515999185764189,1.335428461274036,-0.6573109155060544,9.169887849631603,9.045354305929628,5.2905262194574805,-3.3815502645911404,-25.69984283610512,-19.99642428890099,-46.828174392462934,-72.78331679251691,1
-57.31136272099743,-24.059478051706854,-13.926267839224607,-8.373400689554822,0.8492177956976614,0.2272067195871047,9.037752960141226,12.365026223744627,15.82522001978537,3.047753167464477,-19.453720362719032,-15.165578327297332,-38.058897898165455,-67.3672319907149,1
-60.2065540330435,-19.107832622486566,-14.698203640857264,-5.914763407102313,2.930740352878971,-1.207311670461483,7.251406503347517,12.409026652350084,21.222440026649068,3.5786099553124626,-18.429587956607076,-15.528421198121533,-32.986130347297276,-66.52563006996547,1
-53.57916746183039,-14.716303044823967,-13.531035513401541,-1.2097854908567847,3.0983627258692064,-4.651775287347957,-0.5272945884861984,0.026883910820354795,-0.5544906451286997,-1.6740528726437867,-20.092009797154663,-15.36849848457594,-35.109324827333594,-65.82258819132684,1
-44.41761581890525,-7.607788293000542,-6.382857697945134,6.919243540820071,0.43511874511617377,-7.942934179308905,-7.89439603440442,-12.201958019615027,-16.464677556404766,-4.100366991090519,-15.294006055949918,-8.486994556121676,-32.30824627042334,-60.70230258092812,1
-46.12860661731267,-4.9250724511111805,-4.91267945980182,6.999864755050783,0.9316558369891619,-8.343155709771983,-3.4875568034629136,-8.388468345403648,-5.7333864926165194,-6.01049461806499,-12.874981616219518,-6.843807229643614,-27.513431676485325,-59.07221255702254,1
-50.71920354836992,-13.719003844021781,-13.087262809398641,-2.448837664606062,1.2082773149220811,-8.66419781709606,5.2262488780377065,4.29290016910746,1.152805210099545,-9.723762310855145,-24.123643377024628,-14.80689753471844,-35.35422786511634,-66.86117868603793,1
-51.624259023142244,-21.59955451068864,-16.628414261712965,-5.14034962904234,1.0715769094384164,-5.833098793787797,5.840943047628113,10.420513280760243,-3.5490892582567977,-9.71778754266111,-33.70003964066409,-18.241566032126478,-46.38732438242811,-71.57935861404835,1
-53.27556592245014,-21.584443656905634,-13.241987722633095,-3.193488725235878,-0.12925508628925056,-1.0902984239795601,3.450061708005877,4.848520157999553,-1.8358939512031487,-10.85425152282011,-31.851297626113375,-16.016921979062367,-50.78240480337596,-70.00596397047197,1
-50.66840475651965,-14.210644917694028,-8.900834148084245,-0.9972418177956177,-3.0760667457416586,-3.9644636664099075,3.4871695405929843,-2.0322298462046957,2.726723902958025,-12.845509238301258,-30.095283015884867,-15.849811795936583,-50.961173793148404,-65.75551360180268,1
-37.67525651375301,-2.149622858958388,-3.472685082825283,8.639451664810311,1.8944724902337278,-5.20482694919966,3.0673487267081563,-0.7180190636672963,1.433164331588415,-7.299087808126858,-27.505860600689374,-12.00410554701654,-40.39226417727638,-52.841481405976,1
-22.708530521629726,3.183033593931313,0.16090773750831744,13.146540718989133,10.015289913832142,1.0551327889389284,3.3385472210075378,3.4655276077481503,-0.27723766879601686,-2.7012388007351023,-18.437443775966187,-4.2543161501338655,-24.839139742007962,-36.10485266351016,1
-9.77793953729141,7.092922417182493,6.379814703354178,9.721916885450172,9.586833832131656,-0.2625488315616804,2.120147707821007,7.513817507777723,1.589298320424073,-2.7223722700510478,-8.236105010211238,1.1752793086661377,-16.212211760072407,-22.735346297488135,1
3.8357556493468294,17.03089539738568,17.540479724017715,17.719894319681252,6.808985483978894,-6.061785522947747,-1.4819142697094094,9.115296007878058,-0.5735449053287529,1.9172737835034872,1.5752979754387653,8.507540063139414,-6.235979049147129,-11.967237228800514,1
10.161950667218655,16.688732719375547,20.621021013582656,25.902290259174283,4.323618072885135,-6.075119969730613,0.8029815653812551,0.2084754148322791,-7.630268440334504,4.292168867977109,7.790533237904077,14.764338981651136,1.206836932953106,-9.280455481344212,1
7.537912669231176,11.880077491612546,16.619590399023384,18.35972126718267,0.06082920666964153,-7.674281477974838,2.8673841949824173,-7.208597224086658,-4.881160764287078,-1.605075959646542,2.823929126548883,12.06690885007478,-4.599093994132456,-10.646439764370172,1
10.950155261238486,20.77847407934564,16.387250603741165,14.867369107782796,-0.8783920785506811,-10.133089640181158,-5.656673834555457,-0.8749546977666443,2.6851304436258276,-6.556028913756858,-5.0411323990838355,8.921751391976748,-6.365407241207826,-3.6452001811147667,1
22.05517905194774,25.39764886208304,17.084097522219956,20.972796285640975,-0.6475258195020206,-7.831688873283866,-11.683166842717137,-0.055728325219618124,-4.2156048047225365,-8.871740597785854,-3.478866451226722,9.415441078103306,0.5569432732892565,3.0131431753146103,1
25.085504611205188,18.86963783171406,15.964484143290953,19.318718995606616,-0.8725616663633362,-5.00162624294692,-7.007857380443023,-10.602632595162648,-11.426950072233623,-9.583376332796067,-1.4955465227792768,4.142186459599774,-2.6724638112421637,-2.008262948260871,1
23.588469333487417,24.024239018698772,17.931365043547117,20.331588794058938,3.778911243599066,-5.754534087141176,-4.2099741782790705,-11.808935960091517,-3.603844400197362,-7.4432799420611335,-4.6810483782332515,-0.9630502939205492,-8.076531962208044,-3.988291459791263,1
32.256681952367046,35.70070823910241,27.782492272463237,35.244292542357016,6.247792775971875,-13.345034813401348,-5.179649483253092,-5.580961316688942,-4.548500500651043,-9.546876221148734,-0.35988748939119475,6.610553747455578,-2.049947495417193,6.519652944168712,1
39.79216947070684,33.65207166536891,35.42314475644315,40.035487424890135,0.5979682981466978,-21.05831974506671,-0.9420402408186686,-7.558056593637043,-22.897007021645777,-16.23616050249656,5.295291697725164,16.792920068080946,1.1867658752103907,12.928315689860455,1
35.35100460633232,27.641784011073533,27.557132832162115,29.65470044027193,0.9470285030126147,-15.928665868205822,4.456001769362545,-12.845512084787316,-29.04082638443215,-19.27454676660553,-2.7225511334332975,15.274842549940363,-3.9605662864977447,7.9642318696446495,1
29.90504692057037,27.037988119365963,18.62241732425981,24.98114770967093,7.809263650163918,-5.706187436808673,4.299862270526842,-11.62067819796054,-15.951464309223311,-20.37988062128624,-9.903750214309428,6.893321811896541,-6.925679781819824,0.21412184622570152,1
24.978381072440243,18.956247303317987,14.203157838588336,19.270772409497997,2.2066205239071337,-4.545705860711327,2.3540884625896314,-7.653560028819983,-7.93041444563444,-19.8548703655719,-5.962886392519385,1.3184317920393198,-5.995515776983876,-5.667327822593862,1
20.053269756844088,10.546089268697735,2.95328653450687,8.450438085235685,-5.476852993462294,-7.797301317649437,0.3674971613651261,-6.563743144423896,-9.52257810297743,-13.607264431480534,-4.243733048531132,1.1395985976334604,-2.1182807591216246,-4.048611577276734,1
25.398605998345946,19.232763450297313,3.730626580881266,13.043774254638182,5.115598838292575,-6.493748988359764,-1.9387601939069867,-6.4877278722227665,-8.77434857319921,-9.75873786321704,-3.932456676244499,6.301567025860862,1.7118369826444173,4.700528764876179,1
33.72943270166495,28.081667994039947,16.027572105507033,24.652808766711228,14.388950596550538,-1.1374553130930631,-0.7575833981393756,-6.10072495694869,-6.328770852125931,-10.931800207508054,0.9520698148776106,11.812218877745732,-0.0025850050604496744,7.5884759564540545,1
31.442199062845567,22.738868947722022,10.840914968439336,19.608114110766287,6.111138974388847,-0.19614409165561664,2.27675937047899,-6.944012521421136,-7.396956397517526,-7.768602632076966,2.548906921910973,10.82402992804869,-3.236355476458648,-1.7200122264098283,1
27.44958085390767,18.398052084168903,5.4581382465159685,8.670220158943343,-0.13037865265661575,-9.326661869053329,0.8239434794192247,-11.125895302112099,-14.984625989606743,-5.320446593971431,2.31182591127385,8.550841822630613,-2.5992087106332384,-10.636152910414726,1
32.273593382273965,20.45052887261199,14.156538360426856,10.644654273448737,3.4977674565122077,-17.00056730225028,-5.29535874026992,-19.844569608795478,-25.57020147823571,-10.790083958833552,6.265892435060996,10.321354165496096,2.5437280440127488,-3.4626049604019578,1
36.05727373679949,20.645987398175997,11.651214796415672,16.860786034360224,4.316644683896876,-12.770132826577797,-8.491144551213889,-25.31115280213916,-27.091191625294464,-14.120186342753527,6.336235540824076,5.725069708323323,7.228235695247793,5.096602838896949,1
24.93273277454489,15.459748397629198,-1.6778217654164431,9.376045606742302,-0.10709645972400539,-5.707052298243198,-4.9417281592168765,-22.45438922903473,-22.84259524647512,-13.801898209136233,-4.3259317074854895,-7.639560359042922,-0.03706972878033099,-8.909508837927746,1
8.621408632936198,5.507643340969279,-11.104009634999716,-5.832429817983514,-4.5796175315759715,-1.23474996372564,-0.5918513297702506,-19.57569221880135,-23.728085044412914,-19.30225426226365,-15.36546833312459,-15.918543395811728,-13.62513517715928,-25.743348655491207,1
7.445266892984257,1.1232969868112148,-13.454213493948934,-8.660214846021518,-4.8008540631692345,2.5664914671764856,1.7236906296217833,-15.240518320606263,-17.588689331550757,-20.99386461930806,-13.262023216133752,-14.01826628914724,-14.420599766741464,-21.95394583958865,1
13.99861654976069,7.878568777652355,-5.405814803960995,-1.4665509952344955,-0.509187567061399,-0.024488266001825965,2.190545993908719,-5.135130535995546,-1.3435929071759518,-11.040855492322672,-3.789762802455643,-8.164263441149377,-7.3785106037022565,-14.20531825339062,1
15.442600918280782,14.419229653916002,1.735321320215309,3.043913785830018,2.6651696034081125,-4.958777224660247,-1.4523952098621355,-4.407865536112633,-0.03285887543504806,-6.213594853523308,0.9102565168153038,-3.5117631135721603,-6.18602655067664,-11.167851238475688,1
20.588883563466588,18.328515863829395,1.3373179202197767,7.619894283513353,4.664198656613734,-2.393499327030276,-4.114747354446286,-14.88868222019695,-10.842614650333513,-6.3885769286286544,5.243833514856323,0.005821183468992963,-2.211443864554706,-3.7358913821185276,1
24.853811230264363,20.280179012139925,3.2523091226887626,11.537940811193081,6.566855067040967,-1.6672113576340148,-2.6776740550298475,-19.567038783043433,-9.958443944825724,1.52111737912659,12.525988027732359,2.568834774505514,7.213526415644573,0.04481709769148523,1
17.87136027610562,13.00686485595521,3.721070865676856,6.011456974220446,2.570650128418404,-8.892478726891012,-5.72468760316239,-21.150847468677643,-8.262835899756876,1.7144194474319434,12.738914167965325,1.8228106841667664,6.472476349532439,-6.385529137447282,1
13.92596258931773,7.395149965202257,0.34149257614595385,-3.055512752155706,-4.812731867212828,-12.600856763044114,-11.593150339400966,-21.941638407111583,-14.140502266045461,-9.192840168079687,5.703709540100207,1.5893386681263006,-1.946232781778452,-10.426344877690392,1
18.055043007223574,10.771029961118028,0.9936400580375004,-3.8557415217483086,-6.252448859852456,-10.322395988476387,-7.3514180616286895,-10.814073640183041,-9.186644280253832,-7.47972284222934,2.790843186479668,3.6555922812200614,-3.766807568564701,-7.856944517522551,1
17.90294750316376,10.13001707671766,2.3738250390234295,-1.6604362124209855,-3.3549981482751092,-8.137847122418785,0.5792547317555905,-0.9398301847958335,-2.6003484082750195,-1.6046618722323078,5.033812814208918,2.0272089914578735,-1.4675886458660585,-9.617465770537164,1
14.719913152592806,8.329768757599739,2.068020093876873,-4.613815264735701,-4.271290243267474,-8.516148533815809,-3.3901594922220903,-7.510140472555112,-13.028060797266232,-9.973532370859836,5.694903683007783,-1.0388020950821617,-0.1400403780440307,-12.967958100907024,1
14.562387612020895,10.556316343045067,2.7589770945575856,-4.770994569964413,-7.588392304000262,-12.008927226659736,-9.760584948793397,-11.766734929592566,-19.376704466980065,-16.483399939473713,4.367793119671417,-0.6915488593554753,-1.458209369839949,-8.62432325248788,1
15.573112347525335,9.030567824565738,2.110343560396414,1.258817459193481,-4.309500287858844,-12.207292270144395,-5.544097287119653,-3.7306536690114274,-10.615061030184988,-10.541377943129415,4.504885558249194,1.4343220526757432,-5.390177223060181,-5.89230231894946,1
15.78638822357538,9.449915853450026,1.160488175632576,3.347187145123309,3.579895659652963,-7.1181622960957505,-0.6701054276625047,-2.4896559931696762,-11.100653662830283,-4.132453284279798,7.2935266992345404,4.340367135513758,-1.3654913105774398,-7.046256160005138,1
13.340334818805957,13.282206140201922,1.5972721387092688,0.5366425787102207,5.335089174440128,-4.16766297061539,-1.002365956874816,-8.806430308930137,-15.884435182731302,-1.3447834198257267,11.019118768772403,4.9299108968709575,7.845597628376007,-2.3098583333445166,1
7.28948311754691,7.799629023591184,0.5882633593717177,-2.9269806275650607,1.4796789400125714,-1.5783224938711653,1.31402400223128,-3.7884729343920034,-0.6624671674989129,2.485509133629108,12.779034608337279,2.0949940067339154,7.259686584804044,-2.9556764244256897,1
1.8311314067635238,-0.41424039627739795,-1.9451081498391396,-7.865876136754933,-0.41070393913911407,2.3515460232246883,7.528344397025954,7.485849111714207,15.100703039220358,6.919166671668981,13.425124388754135,0.37530722512687253,5.865059177734604,-14.053245739435498,1
2.9275736544191995,2.591591470084392,-2.5924728451167085,-7.186283042451807,0.873293602299458,1.853515842431472,11.633964085951487,7.811521042412849,8.834025224526654,9.084768277008875,15.198903809141427,2.272970408305152,12.180791957011312,-14.166358766642016,1
10.28521070493478,10.339454132228136,1.6854805220855895,1.7731587848300947,2.1307790634449955,-0.7091528230618549,9.3600623895497,1.7902676048429935,0.9746744711412312,9.992908543094824,15.868180746027921,8.155502307854693,12.542164599668231,-4.788463630925938,1
14.505533368423732,10.912579837083985,7.141123722765866,4.350189943228826,0.7054932920156989,-3.469732188827706,4.46140379173027,1.7953276535030849,4.928888587004248,9.62538259638022,14.988245412807796,10.816843768481053,5.907886256537392,-6.873462463189499,1
8.409254603594515,2.467796636452551,5.188157567418975,-3.4200863850815466,-2.4741436282021994,-8.888844668004538,2.6726309146376277,2.98958635830623,2.7766501456072437,5.257302691060872,12.748720975575848,3.837296725773248,1.1631878083019682,-14.94745097346463,1
-2.068194672913168,-6.346665775625712,-1.9650390051832114,-9.700770255590479,-4.539382662022032,-10.703412347605152,1.1888119763716458,-1.8285059594502346,-10.216294007436613,-1.061403333810123,6.005216021088509,-2.361266139846939,-3.951507924457017,-18.519014679095303,1
-5.792551607994373,-3.8612254306683162,-3.2022900284387235,-9.214868748529364,-3.6051405470319358,-6.90708649120285,-0.8038291379024929,-1.3749605877504463,-10.35739774034771,-4.546868031547564,2.4270044648069744,-0.7158055697800312,-6.1684940417314955,-21.5654384360303,1
-0.7549180260954698,6.517878507168028,2.296251944517291,-3.1764060544188837,0.6068865645811625,-6.486946485525232,0.9968215359775678,8.451273283726941,9.050136938226736,-0.13126879487250243,9.979896920431251,1.9198450898924433,0.08974945816793323,-19.757876432618673,1
2.669045292372619,7.930841679862722,4.869260425805102,0.3727052629615999,3.8844304497329465,-7.047792316686991,5.36923879982311,11.571341559902029,15.461958799300792,7.890961760216179,14.50361161402656,0.04147546706751415,5.36023349354953,-13.321384655790995,1
-1.616269137638076,0.21465020631903364,1.8432416717669868,-4.900140661901987,2.209806590334973,-0.6508933042724698,9.169918794391084,7.070501295032956,-2.48803127568892,2.7203215856708898,7.388076986336606,-5.352108918078006,2.607229249552187,-13.820157662619605,1
-1.0655572886993019,2.9542886316774855,1.3114461492098548,-4.87759067289583,-0.39410343710622353,2.6462314221256706,10.8942847686032,5.989186136753291,-8.411950611101638,-7.931414610216764,6.0315293024601715,-4.589734188989041,1.5282991202087128,-11.615552129340793,1
12.341960000143523,17.42111530482573,9.405080280236488,6.773230324903781,2.720670978008502,-2.6407835868617577,8.232643149443799,3.612358093714856,4.982239514421142,-0.8786159937280371,18.612294333934923,7.19278565026892,10.619908672419326,2.3398968572384033,1
22.345996467964714,22.542097399367318,19.449817627611825,11.823840208318801,9.262978225310501,-3.7956109950817623,2.553583359309253,-3.122697453506537,3.9641709807297634,9.851172877849041,27.90409351870042,15.47593332212335,19.390825670481387,6.117674747625093,1
17.66735184307871,14.750651873078816,18.433158187530637,7.75112803838163,9.319620734789885,-0.6722011801587711,1.1175062845493535,-4.982567515204689,-7.894866217793768,6.912039751900544,25.12624450601054,11.001046283994164,17.91200930132144,-2.1502462527264017,1
11.806996185165552,10.660136033375961,8.333898935674657,7.0047845843077265,3.575269981085013,0.0888683325956251,6.085658505811178,0.046130443590077785,-2.1694374522876605,6.640350062208796,23.16794398105562,6.7872937742953,16.763189520066398,0.02309076941586863,1
11.820866870166492,11.22579192556697,2.4822273210215116,6.068231151453998,4.593274897332644,3.5087810372357744,8.794161406487317,4.414569100602573,8.353418379454679,11.500852391835672,24.927123410591374,9.26567819255941,16.598633394013255,0.9603877189891574,1
6.824170840544563,6.33011312245884,1.6504118351547126,2.3281844436446173,11.28150032769504,8.45165037932259,5.075763046301589,3.71356904267855,-0.9251956229063678,4.01851977690059,18.953476586193474,6.173241113649287,6.146620271256262,-11.27939446939924,1
0.8596084575188367,6.733415304053425,0.041680359379093534,4.819091756512307,12.661081674740995,7.856014562360553,1.0632723594983786,0.45753245015010435,-10.532678664843687,-9.062317758367339,10.352565848764844,-4.14400283644149,-3.443617218505036,-16.58032766719622,1
6.533932512367336,20.52055512590256,-0.521788948503592,12.01089475830087,11.794248786219057,1.4412499332276125,-1.5508739340505895,-2.2998331385710635,0.5892920203766614,-8.868535433683888,11.186360409504339,-7.867728810397134,-2.5621323739881707,-12.644927794676786,1
12.863213910215475,25.701825287276094,1.2082070147244135,11.824548852684229,10.550846825762317,-4.730515682501604,-4.101897129128738,-1.5046296704610618,9.408761645660686,1.1406454798860182,16.228783488133093,-2.635157875740579,0.9743718000286847,-10.270440439194997,1
8.365640198861772,14.28724832516865,1.9734173692287724,3.185567004896283,3.4405903214073974,-2.3982501469392705,-1.512182091247312,7.596906746201567,6.628723984576977,7.971055703556107,19.826651994573425,1.159876352865409,5.393416584474134,-6.744718203486985,1
4.359331049261218,9.765051623749867,1.2909658166979145,-0.08927113060680991,-0.14536735479172913,2.2265713083781717,4.120890500741032,13.998958989724361,8.593011120190612,9.265939405154006,23.215991887943925,0.3880351708920515,8.196325464628359,-3.6131439463834187,1
7.0786628450088305,18.84126292007915,2.0016557990331734,7.653238288402686,5.348039429481497,-3.209475228215834,1.0527126131819717,-1.0107885621657138,-0.4430763961748312,4.352028238262319,22.16622508930873,-0.03495938980180702,6.2067045147930555,-3.674101183373259,1
7.704256992773117,23.500046704514045,3.3124317977799804,11.154331517161879,7.532840328802132,-8.643475001970614,-7.118267213813354,-21.78160916088309,-23.903092590631374,-4.257120571883624,15.944462216746984,0.7874184874131471,1.150832606271618,-5.742783391337065,1
5.764812843095468,14.796110001249321,0.620998199796507,2.819233002181018,4.2922573444420085,-2.9658252083509677,-4.566388247890261,-19.245167413498457,-24.350432734590665,-7.375641002171944,11.635725866586373,0.383326389191457,-6.526262584326227,-8.23782640956927,1
7.987433938145591,4.82846839025841,-2.462534420121198,-2.1800584806551875,1.2932786911091696,1.9983225625378989,5.1923857549372165,-3.3664665385213146,-6.797813633824959,-7.01053525006032,11.712742980199431,-0.4324276975692951,-7.386464888307139,-5.235901320583321,1
12.682665686970157,11.282427005733593,3.4082794803000347,2.6390482939051676,0.151187626417995,-0.5329086421034243,4.765325962864143,1.590507689993208,-5.1304845166889015,-8.00865492146155,12.9739589003744,-1.1851322026040925,-0.22825519205427147,1.1160684611997524,1
19.499645125126953,28.323512496864222,13.848692390974229,9.012157415415054,5.351885888706995,-0.7356765297150742,-1.5295070596564664,-0.8265347655146082,-4.547904112799858,-4.890051321327208,16.073443840116642,-1.1611068429929379,1.8160507259315275,8.024503578830616,1
31.981434723815745,35.24429576284797,18.898792850161115,14.915272449909022,10.93562730786441,2.48291610817727,1.2929960059375074,2.2916287186306086,10.986230461642585,2.4119212504702534,25.664735159898655,5.913154092070849,7.1968972375301306,21.425819590216953,1
40.72833442049645,34.07965469492,19.585253484523317,18.58231401268771,9.257270099648178,0.6971883444606731,2.628678160510569,4.506426023185637,13.587464095330425,8.05531936676164,35.79165342989036,15.130500492607915,20.253799438214415,28.46412948943562,1
35.86819936485533,35.53808745292583,16.79205962517451,18.964242448980414,9.049621510869988,-0.6937400578304298,-4.4206137469011795,-2.8859059863512306,-3.661954406121292,5.268967847621022,31.654501387515555,9.804401179064634,17.463918873155283,16.021727333177154,1
27.19551042963322,34.65447412451008,11.565005418544477,19.0184756275843,10.071970208466286,6.36424870619044,-1.7267613428028334,-8.468306054157367,-10.820545925312238,-4.939598582653474,19.156482512432966,-1.8178948651983093,2.512424383159611,6.632138127498197,1
28.351632368636913,29.80600173683659,11.620286355592734,14.771589740150686,6.968153906644598,8.421460067116676,5.697346869067315,-5.512384058734149,-2.974506728536463,-4.953569963761222,21.08353216012653,2.4216674910274274,3.949227130647478,16.574269315872396,1
36.3284747599473,27.918745034474778,16.316370599644102,11.705740479985405,7.116178006853098,-1.8141311255794683,1.462983879794245,-4.136674296224156,0.6671888424698782,5.563697507638191,32.421949060786915,13.469243429196828,16.030945571124082,26.511989041231885,1
37.25052818172705,29.32772431728615,17.256986328345974,17.92396693701454,7.190947724666733,-5.912940714815727,-1.3004293001049543,-5.908179675074209,-3.7883523178983887,6.24488468307024,31.87018342393653,11.498533504619903,15.10474806873535,21.779562826648835,1
28.969534119575172,29.808276333618615,13.38352742761339,17.106736930158444,1.6850143293856543,1.7638280597884308,3.3659292506065217,-6.068248452714364,-8.362317076220538,-0.6601560328882643,27.811880753977665,3.096113836287322,7.306870146553763,14.576763598008935,1
26.304288672406585,28.920130679255795,11.128492384603193,8.713536340210563,0.34402821664504746,6.990623218517786,4.0871017513512475,-3.729076053266452,-3.1515450991230596,0.8618930882442566,33.00439639637347,4.17868505362003,11.02785297456475,20.460046871195523,1
36.32347199971591,31.680279405556217,16.023463172942428,15.579678511232249,5.764562249066387,7.448401457363508,2.3265510160312575,1.7800005711200648,10.416599558815344,10.55598064776455,38.782701081684785,15.239797349386423,21.990905086338095,34.36946601228318,1
44.21721461306573,37.72304343636616,22.046500621618485,26.917434217567113,10.114540079565527,8.128835449859693,2.080789214476619,5.626858156769029,12.281555978649173,14.581200930552566,39.07261859227257,21.55384393280954,25.98500213780027,37.25918627360667,1
36.479206510020255,33.66218750046952,20.069185546893575,21.40381334980414,7.7089838594523865,7.992540644734196,1.478442394606581,3.886990910520145,0.39587699947851096,4.1087377666517515,28.49254101339685,13.962821251425442,18.197028173267682,25.893994493543715,1
24.10381563537986,19.66586653849927,15.618793183776331,12.355505963774007,0.8784602992976978,5.269706248426949,-0.490180442426973,-2.2522427255272195,-6.908771413896496,-8.964638049213237,6.701755230839524,4.56887726322219,3.38544012323343,16.23492551493699,1
20.422319900516136,15.859900149665284,13.39019670374507,15.245922592390666,0.016834959908896163,0.8577870655449296,-3.010265276088372,-8.559740000697447,-5.811241474622772,-9.064156734830622,-6.823002200575926,2.0281954077969218,-4.5074241409839075,13.361971963838412,1
18.653159209403903,21.006742943706847,8.030856620747077,20.054210955736295,5.411729194976622,2.3787224163698055,-1.9448728773167638,-3.919225716436607,1.1881135245838736,0.22172043979897138,-5.862306711523775,-0.29600164414722485,-0.34714953881553257,9.500733758987685,1
14.780558111568162,16.981794436154495,2.2931306019838003,13.0717754801954,6.180260812604024,11.334508996935659,1.6745844730721091,5.2948569725404715,8.627252532946073,6.112843915204646,-5.101462016527943,-1.011005715413075,1.025289906109446,6.164735062731406,1
14.202994688600766,8.195978861047532,1.3146534919343562,2.6656457306463146,1.7851218109218743,14.240374512575851,2.778497686392938,1.8122288667560706,9.462015056398332,4.609998333117362,-6.763505989002105,1.4293720745785428,-5.233338115378693,8.820132327999426,1
13.183378737755175,9.13349867209963,1.5143635664557893,3.769993816663998,0.9946619026014947,11.13480741786079,4.833053555493209,0.4463255220969331,10.575234321587871,4.476561802876475,-7.356066430100146,0.9927386847281285,-6.19631446856364,12.926989282553318,1
8.358173052896824,14.560891676707367,1.3036268565034943,8.321898417479321,4.3628172883548935,13.39372698085015,9.555696640759974,10.506645952321344,9.396192450152565,8.424313137827658,-8.372118337424896,2.3030109973984945,-0.42747280594834347,12.296220971629689,1
5.842387982707443,10.981926075606701,2.1925201525981723,5.760888948153083,2.4648184059710276,13.389613203932026,9.530074699461345,7.854914488788402,-0.9714808666452099,3.8836721839643458,-7.46505727351553,6.435907932831144,2.875361835379341,10.385315166803629,1
7.223865845847634,4.43133668721986,2.4499870361831766,3.76140060778061,-4.862968646341053,5.01461410557131,4.00789814074478,-4.3029606308762745,-5.719545213937232,-6.783450084810224,-8.935871728237291,3.2623305668114906,0.42734227151393034,10.882270973001061,1
8.195399086575183,6.402894683199683,2.7576872018154157,5.680924435127216,-4.771246431556014,1.7639042207321363,0.4461652153685226,-0.6590303190555755,2.045478374912841,-5.3861970398298435,-14.449366203987333,-1.0226644317325522,-2.6697113814457696,11.794106528915798,1
8.688745116219799,8.407958650946686,5.240104572150586,6.863324700053551,0.8072532124517044,6.418173968038765,0.9388594921277447,10.069545997771286,10.547527065866465,3.0827294105587995,-13.363507945972644,2.740453431663949,0.3888352325642934,14.203598977046036,1
9.028035350335925,4.561964647694392,5.31971900409908,6.240686012184797,-1.805275748212818,6.082487736165504,-0.3559842863610751,8.314377385357623,7.749387296637508,0.6752086630999174,-10.915671543763343,2.272793334280759,1.483233650560205,15.386667326494422,1
8.100823692400485,4.687577416504698,2.3674400285271284,4.715125636296238,-6.301936523844468,0.6107817852776902,-6.2497385616271,-1.6741293401147983,-6.280377708047202,-7.947787414471587,-15.170711861988046,-4.511822408458794,-5.473073680445821,13.231282159316603,1
11.43556406754241,10.793950432172165,3.8746607415564362,8.414203923346605,-1.881858682182684,-0.7628285326348943,-8.904524262875018,-8.4746013489607,-11.991455783073107,-8.320002343184676,-13.486613295856483,-1.961197137376975,-4.946838226086337,16.697730755605782,1
18.78517299100023,13.487062237034511,7.107695160633538,15.957410937849561,1.8640766490551348,0.3646043694844163,-7.118266064947145,-10.70130410142387,-5.67005550634943,-1.3892527550013412,-6.331522610996209,5.487500538857345,2.854004059231201,20.883877502667712,1
16.45602675374947,9.178901699288264,4.543807761784208,13.030247603826542,-2.8457725000138963,-0.2959419169644182,-9.949850949648066,-11.044482258267896,-4.210246019865157,2.025460702862384,-8.363353778431764,3.1395090730385684,0.9213862578060525,14.40711461299166,1
6.328578215197494,5.464030584658545,1.049043143777987,4.745881805859931,-7.007537664632299,0.08690233898777056,-11.482139626068108,-7.890894761192397,-4.8901160278190465,-2.4373783669836095,-14.895146428470845,-4.025418286177473,-4.704592016834238,9.227225743348676,1
5.722363341892548,7.593359276541634,1.6600467064832731,7.881124285538662,-4.787210367630162,0.6977588699012145,-4.796915414393553,-3.29440394940031,-5.171730059178335,-8.19758473937383,-15.63807343889767,-6.187853821417025,-5.061007080163104,13.063590421615691,1
11.725257614738322,10.651961127133063,3.181955181020977,13.020565427709455,-3.537681562166497,-1.123345170456318,0.43846538205096686,-2.6297598094246077,-10.494134391578774,-10.192315127031117,-15.295476807679805,-5.2117956380657375,-6.710101438804632,15.049055412420433,1
9.881227695864846,8.75541399384605,3.419442297188909,8.371992225026982,-6.82132437068393,2.1058203834701654,4.589117258807664,-2.119619667210479,-9.909124982460915,-13.178087777316115,-21.307375340994213,-4.890527087258743,-9.940770302727032,11.80176793591582,1
2.387807245130233,3.4117769403564875,2.247946375939895,4.950364511354713,-7.635152216901609,10.14929435769009,10.770966898867353,2.6125550192412366,0.6212389164856522,-14.06035444069339,-28.686623068108723,-4.738307860170193,-11.35837670498723,9.57906625453667,1
0.5004456783229401,2.7741304686231842,1.5003519776067638,7.2944871861924305,-4.339510282919913,8.549164154624147,8.297373400044362,10.253033131306331,12.41439608014205,-2.553765615344103,-25.30427841525603,-2.6481589353073205,-9.284834924986953,15.632627331340046,1
5.084868113455094,6.532070572482114,2.9901590318474067,8.119660543957131,-1.9412833480019571,4.005082554313297,2.178405669692302,15.168582030382165,15.223520024564557,9.06517174662622,-13.491775356132594,2.4124497966009506,-2.542998009787646,25.329058428856523,1
6.874723619566254,3.8196716648470233,5.1174871068983485,7.852868751758561,-1.357956756524018,11.555873425030255,5.370583157994263,8.19971733755738,3.4502151274706447,3.4925246723934054,-10.328947010864706,4.798194861983775,-0.6226610446381091,22.40808366751978,1
4.2587770141361325,-3.0044102570780247,7.885646181816871,8.149011376892119,-1.3971278266219334,16.17209198543446,8.884041858683428,-3.1570742917701344,-5.241625795932542,-7.776050953194243,-18.81844452499949,0.18965243311438962,-8.535093526619402,13.970969995882358,1
3.586710096674345,-1.3567077839137411,9.340711337864763,9.981337914456612,-0.4089130795581827,10.556525430980066,5.549648769235533,-5.908700683057766,-3.4047044209297916,-10.522128572972875,-22.63368397956501,-2.479947281902197,-12.986140864270643,19.015519653539663,1
3.80709837266844,5.898523509135384,5.939757481401401,14.364514702744305,3.2690889929537486,12.460996022235252,2.348733996561817,-6.368652750247695,-4.071834370457656,-8.194448686478655,-16.3487102804374,1.4452359049957382,-6.448129478806331,27.09588733021736,1
2.037405503180171,5.905874948476038,1.949818441078468,13.657475101201321,6.6746176554312715,16.7245129291441,0.4448134028605787,-5.011953406199249,-0.49387878416093944,-3.5383690442560374,-11.52626693015344,3.0915989194655733,0.8860814321245125,25.5257169533729,1
0.1134596416604925,0.8315852369277508,0.8086700865349963,7.689252786691338,4.844116020439152,10.305236758228512,-2.511418007460227,1.2811605487549664,5.406346190747007,0.6744011254088546,-11.753994942165294,1.1760964463411054,1.1750726595485113,23.2755119452372,1
-2.442066296819508,0.9678785435519792,0.7036984108129358,6.175710812945974,-1.5748162853847827,5.5060492624864645,-5.225139601880218,0.7317424280981366,-1.593687237964998,-2.863362381592437,-13.803113344081277,0.9501847340351794,-1.1579057412232991,22.80360183669348,1
-3.6606366250196416,0.36591416955388034,2.5190933048439543,6.0774550405911665,-4.977542694387701,6.629335228183525,-5.89874962832365,-4.622234671027898,-7.022640698350543,-10.804811518089993,-17.97913294707542,-0.08976347235542192,-3.5023423225327566,20.99278382423131,1
0.8399544444180336,-4.55946840458119,3.8090255366568764,3.774330895343642,-3.0273298446458115,7.500766652467999,-4.058174452630093,-2.901845593624615,-0.3243802431395284,-10.578352065820887,-18.65863689440046,-2.8222692637472204,-6.883840183945503,22.171283998276465,1
3.875310593820384,-2.529783630543374,-3.7101034024135147,1.5916486775308645,-2.5776062225959793,14.459131140552406,-0.2631468086231805,3.280947579606781,5.277625317048439,-1.6486573109811784,-13.960654484567765,-4.82328026575186,-5.588224469673017,24.86875304581286,1
-0.05981502850334053,1.159427191184058,-14.296539260543346,-3.4609644176953234,-1.8950597495118344,22.681088931071425,4.969403362452035,9.490197304709444,8.538408226244119,4.226379042602897,-11.781071714661813,-6.71846719103191,1.2071591788060343,27.14561726906794,1
1.3034592171538186,-2.420001653698903,-11.434897417361817,-5.347248310200781,1.935046011314419,18.702950627264478,5.804532250760962,11.070207477951023,11.56584631216342,4.319064400407235,-10.523946945082866,-5.901865975596553,4.547845602493624,31.92672606544726,1
9.183086574614393,-4.216320063652308,-2.9535644749234367,-2.4234268029089723,-2.9365671463483953,8.243360649164233,-3.9908187096146355,2.934030193873914,7.9352535810028595,2.3146489199513454,-9.922702373083029,-3.9191331202409723,1.6708704336696878,33.06708726495702,1
6.0428992915269495,-5.521276488370425,-4.712823815564892,-7.336339435365496,-12.945977364413627,1.767087531031716,-15.168800953163924,-6.749242753670972,1.179173632918868,-1.7745214337042423,-17.050483437448246,-7.616681378756699,-4.367631257100163,27.1744779093303,1
-4.748575492409033,-8.084194982441296,-10.632996466176554,-12.012728101295455,-8.124569076211873,2.1681094284037625,-14.679630751544412,-7.765691620924463,-0.04119934106446077,-1.9640988180714976,-22.32918970184272,-12.263573398061105,-9.199994390673035,22.678109299121658,1
-7.564129790229455,-2.773020018361672,-17.773734749627828,-8.246694182574327,1.477338738795536,8.327984348496619,-9.272672658192494,-3.513459537861869,2.6159863136263026,2.804368778545324,-18.4653265087506,-12.472142866343543,-7.591339599550249,23.315296353839045,1
-8.971436895638279,-1.368286239248099,-23.442634270347988,-10.98159274088249,-1.6634042179438628,12.032490617736594,-10.185496612810537,-0.514261137934735,2.407069256662596,2.9316669119513974,-14.911522444824438,-11.93334975295834,-2.7366201222580853,27.210673628088948,1
-12.006222114473065,-12.271198671503626,-18.216304188333844,-15.707397891553422,-3.9795877507667856,12.255655565394477,-10.94873179201906,2.226735662682997,0.6096735076803989,0.7749997445624166,-11.016197808239783,-9.04830841585768,-2.116044343539421,30.792140200272065,1
-5.79930555026864,-15.563784172440068,-10.502835426264326,-10.402184410941937,-0.3208829336955731,15.796873611357753,-7.209944649052505,3.733114256644824,-0.31907441854992113,1.1443628677451936,-6.580261702952172,-2.4211661518383907,-4.957547626962737,33.13772266584359,1
2.805609771750003,-7.069723265651822,-5.047544933286117,-6.473852856876892,-1.928017156240674,16.229117543200896,-7.142790915023863,0.7162055367085807,-0.3000489307031551,0.7514857318744069,-7.247796325777282,3.591257707464403,-3.919226014398781,40.4330785092643,1
2.159354291864614,-3.9742805483020147,1.3580735182834456,-8.030317561959027,-3.3262137381237755,12.713310721929966,-8.100831504913037,2.8650455253556117,8.44247055650328,4.472236282607791,-2.7896018493072035,8.667520520913232,3.6198436343783054,47.21829339399527,1
-2.8851443372491534,-6.499451476014006,-1.2070958976477875,-8.107501675561636,-1.1201091260045626,17.86259267674239,-0.5295935774996641,16.178935097187026,20.44315416115672,13.160483610161513,7.2147645841519035,11.586951319522125,9.651939022941473,43.30296286206696,1
-4.8735883777050155,-3.7457121022449016,-5.658173742305417,-6.791818596676059,-1.6719725997506343,23.289842543192794,7.637742196635607,23.46898640667505,20.36704732681273,18.27988239734313,7.047660106656317,10.505845393899333,9.516185156704157,39.87958984739474,1
-2.7448137233856578,-1.1542210267082655,1.6240959785047355,-6.928350126523216,-2.7521456369615422,18.516090493373113,5.976392243444208,17.293479438277217,14.552139394689263,18.16876569437797,1.7483675773943208,8.829922254111665,8.470876169898292,45.55446221963519,1
-0.221863567147226,-7.75466424534447,5.720176639323407,-10.919602818661232,-2.225219439181418,18.022984667558195,4.362139908067215,13.344806496491788,9.310796450187194,12.396085034679015,1.457299597981609,7.759300681593734,8.091218009759917,50.98132501298896,1
1.017118756790822,-13.163387604072305,-0.1520333945047656,-12.793581491418479,-0.7269362130330235,23.151407006391583,7.032412592806554,13.745886875638071,4.160112180935168,5.727525068749317,1.2723826877841216,8.504034356253078,7.298435523325391,51.912238618043304,1
0.902958741174329,-9.695998587672577,-5.325634789007984,-8.324529566894846,0.8532080643163309,19.468596883557428,2.8395226699266214,7.842565091246009,6.590092702687134,7.224378246149104,0.05190610568623377,8.796941580707086,6.720527191816147,48.222041974813266,1
-2.4409036422023904,-6.785403623287902,-9.349606950218183,-7.0271894055569275,1.1742302528168707,13.420225801362909,-2.943207577799181,0.48344475526226927,8.397499298362835,10.41265215275545,-2.3580180340633072,0.8433455796347838,6.45671752249281,43.788072950619124,1
-2.602513857033452,-7.4447943739006135,-10.029369497251372,-9.171250603680141,2.467357193129647,15.748902320516777,-0.8457930774782506,-0.7844657217364643,-3.1323323965407113,6.410120512202985,-8.123897180679831,-6.5965432022202535,5.974130222988316,45.996487710839496,1
0.8960885517313271,-9.649291757306848,-8.256432560566646,-7.983404989319769,1.0714214147493206,18.504474957595797,0.3471324776075013,-1.4614713798079895,-14.635552427532122,-3.0042600268726662,-14.56149060472553,-4.543037315235458,-1.6110797577885343,43.90932544550448,1
-3.1540263261473145,-11.917793496877989,-11.373627590016792,-7.465658657185862,-2.779246368266409,15.679842994983588,-2.8165826597678594,-3.297982791253213,-11.802433947070394,-11.83136253001613,-19.591129765988608,-3.8683160322466703,-12.811448451668927,35.27441042605625,1
-5.488224892750121,-5.760547334621803,-11.509049498550912,-7.886587527537396,0.7296962199358077,15.286745691029402,-1.1710934629106824,-0.7996663269986444,-2.300712557592493,-8.195955154142714,-15.982190737395253,-3.502032688035711,-7.536985447276004,42.27228754044445,1
2.633384254663161,2.101072314593331,-3.6375188951794817,-6.766449504193119,3.5702875005541497,21.792912232029998,6.608750321089529,5.426810021262195,4.157462364496622,6.84258755191747,-2.7841119158906844,3.38906427837263,8.338945410871954,57.61299728842583,1
3.717505589844421,-4.062518737778753,3.6380165074969297,-7.347298640430162,-3.2418132826524193,26.87285773414947,10.603548179989597,11.634298573117158,7.935516677440932,11.705281332568903,0.8448707428829776,6.635233141236774,10.001732105231959,55.923602929449885,1
-2.572207983359466,-11.920492585356532,5.861667026341167,-7.5493930755957255,-7.295940428373795,24.827548235972536,6.2474512167044445,13.223161765438375,7.350007914214597,3.433936402654197,-6.880701992030632,3.158253413800336,2.4599046420380883,47.38010668837555,1
0.5514185342381275,-6.550780440733913,4.189371466253262,-6.760301545420586,-4.9127693657085905,22.035753395572584,1.9451557598422804,8.578436820360043,3.755219368015536,2.9763069698797295,-3.9757042047076245,1.7530282293211903,2.806073465780462,53.734932698915166,1
7.970502818946526,0.2023545358438632,5.197628678163534,-7.979392369798815,-3.09321280228862,23.6884268115343,2.7224810824343404,8.7346861449481,8.496436351882139,14.22247892804594,7.457356741173973,7.054712565480996,9.867512965978339,68.67389483765756,1
6.380774941395898,-0.23918587346318354,7.42067596281919,-7.52315421547323,-2.5472686802008893,26.416533329396753,2.053091474970333,15.84352355629137,16.045050818071704,19.52349764989078,9.10950870776488,13.35173883706548,14.707326476038068,69.8370467821848,1
-2.23437950033804,-3.143037319415258,1.207959450170729,-7.481910007589951,-4.085473382978277,26.610284712961224,-2.3690734797899555,14.884624487962752,11.578416041755197,12.066212314189043,3.8114141144151756,9.324685400218359,10.41537170832163,57.48895014566569,1
-8.162605101449106,-8.706611623688666,-6.031467766297848,-12.915724062014839,-4.7214291698716755,24.649892838114788,-3.483277900694232,6.795149226707468,6.868470243058767,5.862296212764319,0.18292763532673817,0.8475413698064427,-0.46404492203415426,50.25175019370836,1
-11.924872372209364,-15.290677513329626,-9.547715925762946,-17.655486390255685,-2.5598741788591433,21.190507645676846,-0.7830923278780055,2.0668288242970805,5.979818574403679,7.318820640927966,-3.1057429869698776,-0.6150024940472352,-7.0629266895916425,46.45689581807262,1
-18.20586405936334,-17.618763221333825,-18.031372932318842,-19.984161003632416,-6.354627578822339,15.281376790730851,-3.4002141770416165,-2.350706108603696,-8.089264544119754,0.9005190414068158,-6.02697733671568,-2.584015367525129,-6.912558175393624,42.54256166846075,1
-18.8847906955964,-19.267126567663205,-22.17472705353174,-23.6165397286479,-13.404469926064259,10.998135611706054,-10.998546627385572,-6.035268153201518,-18.536153245584565,-13.30693505444672,-6.607506551968513,-5.867205669558356,-5.048855512394097,50.184927192315044,1
-11.411160978013857,-20.383863860739602,-12.74249530259322,-22.505581588987116,-10.990935058927455,14.142612903805396,-11.000133599513697,-4.862610799039705,-7.040394108974081,-12.327818356543052,-5.069244962135999,-2.870377266359886,-3.7112305371607412,58.827157234131384,1
-8.916677164743604,-15.500558166720886,-5.507783360265424,-16.730760031641825,-6.360125578869064,18.751767024949228,-2.259932632264187,-2.9162924341099075,-1.215923177503222,-2.5100557532678858,-6.421442823387399,-2.051599576701306,-6.540849794049027,51.80771243346516,1
-13.286001297767754,-12.923322175889695,-8.999208871309017,-16.307949591339963,-8.963460934036434,19.95023762525681,1.414339657456527,-1.65552728991083,-7.876471398466615,-5.80893696419312,-12.072683486991716,-5.599834540148301,-12.434957184143412,47.30773885403867,1
-11.826823743275407,-15.874236385094264,-10.904365103398588,-16.557014213340956,-8.99268187624953,23.135835541782555,-1.7527395905106578,-0.33220322897665744,-0.33967963114959154,-7.896710403601874,-10.153444525838626,-2.8885660236810344,-9.498360129002261,58.54011108674147,1
-2.295844278519465,-12.058588682556264,-5.246321451392816,-11.031106370490374,-4.442064752900435,26.49976964203514,-0.5414892615115316,1.4763741578916552,12.22483818668508,4.191233261992561,1.288356402786075,3.9145805045841984,1.8933097492003412,66.33593192482847,1
2.694937198578406,-5.995632312931099,0.6010176994109928,-8.312690867548994,-4.477888894622449,26.05342652593671,2.913865261073399,5.955248745664779,9.359626298541363,12.249748864411378,7.583175208119205,8.152030289563498,8.496314748666807,64.76206397863601,1
0.4796501890745044,-6.176115740210676,3.1514023103867776,-7.225166886222158,-6.504333564607232,25.336541397653733,1.9908010283069602,7.591935293856077,5.546354343156638,10.302553444536986,7.043630343746735,11.327737289891816,10.643697197900636,67.79331222007164,1
2.8380545662432666,-4.114585291318686,4.3736102762423235,-4.631582336340339,-5.17238925324834,25.683735524152993,2.565579645888833,3.5285665618152673,7.92732394892523,9.106587221263444,8.234074624587072,14.060471769517257,12.609080286831128,72.9226770822533,1
4.896598032107365,-3.5629973551002365,0.8246366909886449,-10.722999657337539,-3.9224450943897797,26.893252998100884,4.971441405022434,4.554634762321083,6.875538046026044,10.890023228712304,9.817726549060325,14.65503081582783,12.143037414412271,71.22073111063027,1
-2.7960091131001996,-10.382973515863043,-6.79138118102784,-16.278186743881097,-5.3363506334116515,28.146283325837068,3.7103366821493564,10.733167730718149,7.139994558383017,13.565532492293896,8.738790802739967,11.23509444677681,12.686829187026577,68.1366154187455,1
-5.496812014082169,-12.163399763564096,-8.129258654704172,-9.042964744589213,-7.051191113433713,26.96997984629721,0.9079386502631492,5.706493869361703,3.1247062698265218,11.529249251847869,5.95663792686797,3.1137416894926546,12.060372258766005,66.32618018479715,1
-1.6314470464291517,-10.562113072041553,-5.612728633437104,-7.5119520656040795,-6.426376326376907,25.841435253101146,-4.0226926026882115,-8.766321911992371,-10.828115224333889,1.070371137484504,0.9736014836203868,-3.4268433501349778,2.9709604958563673,60.69865142486845,1
-5.979409341883554,-14.632063776750936,-8.474423614961516,-14.003779985602641,-3.133568576817523,26.019333243774184,-10.776412078316739,-10.106951858190735,-10.0860460997786,-6.838365184247126,-3.0931064319897033,-2.755717730857078,-4.889064580989865,57.17499363836268,1
-9.319710884685291,-16.324509908449272,-8.938916838066822,-9.434590751954193,-0.22361084501705752,24.504004434540416,-10.231158965423221,0.04117728298814516,0.7948065943269933,-5.6697245386995805,-3.137279657834315,-0.6578150073822697,-2.6894666031051218,62.90728579085153,1
-4.60318507931353,-13.492648437665753,-4.264731915227476,-3.6945475752135417,-0.8284404614517862,23.399218188884355,-3.0347577310732703,-1.9429788095589604,-7.971164619510933,-3.375315072336222,-5.146437797370471,-2.499326541416502,0.18125512198613958,67.37367214054858,1
-1.2091294329196778,-8.439159048356567,-5.642180728893855,-6.212630204079775,-2.239322824382167,22.743682918999937,-2.00207702201789,-9.527932940262527,-16.161847399994677,-3.497678799452406,-10.195422527821968,-6.054089404355224,-1.7007495620946775,61.374649664372654,1
-0.8528295986877605,-1.2714915495829437,-8.703263627698307,-4.053465063637683,-1.025803045038411,21.496407416957194,-8.696170364431799,-3.0175482771330824,-4.345469649785666,-3.587921770120901,-8.889555073179961,-11.531969895604256,-3.400220159217109,54.44962702534862,1
-3.229534915350217,-1.8771145103858853,-4.930801120323288,-1.5928681801571187,0.7721603432826218,26.247089662537302,-11.685748423272228,5.455296414677132,4.202423104225673,1.6542172262382246,-1.8346310495165428,-14.499774968707325,0.7085318481523242,58.54094159084067,1
-3.5124589691282364,-5.351996880673362,-2.397196044099316,-4.918295880840547,0.4271551003799625,30.226207838858596,-7.18665143861924,3.117426028117584,4.4808793863166105,10.770396435213708,3.197176865926414,-4.186937847177452,10.544293175870768,69.20202565648768,1
1.8712154796607177,-0.8020044716829906,-3.204773203787255,-3.0119433222881726,-3.9980047828024228,20.85217914871291,-3.4883399683875034,-2.6036504899011863,-0.4196248121563917,7.091004267875607,6.97075344214064,9.91162532073154,13.325576225738464,70.39032630352062,1
